,AF3,AF4,Fp1,Fp2,AF7,AF8
0,0.00477681448683143,0.0672344118356705,0.00779512478038669,-0.0138332583010197,-0.0141896279528737,-0.0132296131923795
1,0.00120312697254121,0.06491469591856,0.00760698039084673,-0.0133890621364117,-0.0159086789935827,-0.0106078581884503
2,0.00178240891546011,0.0646440833806992,0.00981620140373707,-0.011035205796361,-0.0143050793558359,-0.00657952390611172
3,0.00433356035500765,0.0654546394944191,0.0120321111753583,-0.00957559328526258,-0.0118411174044013,-0.00258384575136006
4,0.00638085138052702,0.0660668462514877,0.0125178825110197,-0.0106325577944517,-0.0112841660156846,0.000406435632612556
5,0.00685367966070771,0.0664988905191422,0.0112947057932615,-0.0126522844657302,-0.0131870862096548,0.00334626599214971
6,0.00548367388546467,0.0669986680150032,0.00926071871072054,-0.0128899281844497,-0.0168072078377008,0.00758401770144701
7,0.00275791110470891,0.0669593214988709,0.00776398880407214,-0.010575476102531,-0.0209087990224361,0.0127427661791444
8,-0.000222223286982626,0.0660122260451317,0.00765187805518508,-0.00686302687972784,-0.0243832990527153,0.0175089165568352
9,-0.00202413997612894,0.0646407976746559,0.009526327252388,-0.00269773090258241,-0.0255553387105465,0.0211130268871784
10,-0.00181584793608636,0.0630672052502632,0.0133968545123935,0.00132396689150482,-0.0232050605118275,0.0229335054755211
11,-0.000843315327074379,0.0608123913407326,0.0168520752340555,0.00357872014865279,-0.019239529967308,0.0218719728291035
12,-0.00194612320046872,0.0573113188147545,0.0158699490129948,0.00174812402110547,-0.0176710803061724,0.0170753821730614
13,-0.00525576947256923,0.0529289767146111,0.0103168478235602,-0.00307348789647222,-0.0189284421503544,0.0106680355966091
14,-0.00745284557342529,0.0485556237399578,0.00503771426156163,-0.00632835924625397,-0.0190008599311113,0.00620501954108477
15,-0.00643694447353482,0.0444323644042015,0.00367630808614194,-0.00558246625587344,-0.0154312197118998,0.0046156533062458
16,-0.00303306826390326,0.0408622920513153,0.00599098717793822,-0.00178040901664644,-0.00957321468740702,0.00547882914543152
17,-0.000498757639434189,0.0377435870468616,0.00922561530023813,0.00204926286824048,-0.00476818159222603,0.00747094955295324
18,-0.0011108530452475,0.0340063981711864,0.0107386605814099,0.00295947631821036,-0.00303249922581017,0.00799576193094254
19,-0.00321196555159986,0.0295794233679771,0.0104617075994611,0.0012759231030941,-0.00340440543368459,0.00614705355837941
20,-0.0043196682818234,0.0259985998272896,0.0101798670366406,-0.00024435791419819,-0.00381435919553041,0.00376315391622484
21,-0.00375011959113181,0.0243540499359369,0.0108816809952259,0.000104989048850257,-0.00293308100663126,0.00277478317730129
22,-0.00191992369946092,0.024191165342927,0.0120777254924178,0.00217266823165119,-0.000524002767633647,0.00332586374133825
23,0.000559392152354121,0.0244117882102728,0.0133362738415599,0.0052104271017015,0.0031796779949218,0.00426206504926085
24,0.00228576292283833,0.0239446815103292,0.0142815355211496,0.00803158432245255,0.00745654571801424,0.00374813377857208
25,0.0011694630375132,0.0221732668578625,0.0139958253130317,0.00881858449429274,0.0101659242063761,0.000229671742999926
26,-0.00205821846611798,0.0198728013783693,0.0121917678043246,0.00728773046284914,0.00949505250900984,-0.00471244798973203
27,-0.00460443738847971,0.0183164048939943,0.00890452694147825,0.00501780025660992,0.00605990597978234,-0.00794997811317444
28,-0.00543438037857413,0.0179542955011129,0.00485949544236064,0.00312132621183991,0.00252952263690531,-0.00945181306451559
29,-0.00423705484718084,0.0189344957470894,0.00303979101590812,0.00300857541151345,0.00210711732506752,-0.00987912993878126
30,-0.00123167410492897,0.0210516024380922,0.00526045355945826,0.0058448133058846,0.00524395518004894,-0.00856685359030962
31,0.00247367983683944,0.0238019563257694,0.00950389821082354,0.0103104673326015,0.00953313615173101,-0.00592569494619966
32,0.00601654872298241,0.0267258752137423,0.0128991911187768,0.0137526784092188,0.01278046797961,-0.00374033348634839
33,0.00865220744162798,0.0291502587497234,0.0144582465291023,0.0149847753345966,0.0140879936516285,-0.00339021068066359
34,0.010208997875452,0.0304529462009668,0.0150370681658387,0.0152514977380633,0.0140033094212413,-0.00444970326498151
35,0.0105864470824599,0.0301385913044214,0.0151102049276233,0.0157765857875347,0.0131819536909461,-0.00617781793698668
36,0.00959626771509647,0.028217488899827,0.0142401689663529,0.0167280398309231,0.0116595467552543,-0.00820193067193031
37,0.00807455275207758,0.025326931849122,0.0127786798402667,0.0187110546976328,0.0101145599037409,-0.00935007724910975
38,0.00680533377453685,0.021149842068553,0.0111972028389573,0.021513344720006,0.0094583835452795,-0.00949152465909719
39,0.00566090596839786,0.014571426436305,0.0092966565862298,0.0234573762863874,0.0101246228441596,-0.0100136948749423
40,0.00451543508097529,0.00578881893306971,0.00742022693157196,0.0238635055720806,0.0124747091904283,-0.0115985628217459
41,0.00377927999943495,-0.00382039439864457,0.00598376709967852,0.0231404695659876,0.0161113794893026,-0.0144365560263395
42,0.00361439399421215,-0.013058858923614,0.00420885067433119,0.0216095577925444,0.0188943557441235,-0.0180830545723438
43,0.0044443104416132,-0.0205093361437321,0.0022741740103811,0.0209734421223402,0.0197528749704361,-0.0200859531760216
44,0.00641808193176985,-0.025369705632329,0.00108683772850782,0.0223613772541285,0.0196735914796591,-0.0190555825829506
45,0.00800609216094017,-0.0285670049488544,-0.000224590359721333,0.0243123322725296,0.0190641935914755,-0.0171804558485746
46,0.00795589946210384,-0.0313604325056076,-0.00217565172351897,0.0257734730839729,0.01819858700037,-0.0172208826988935
47,0.00695669697597623,-0.0343154482543468,-0.0030267764814198,0.0266814548522234,0.018307151272893,-0.0194989666342735
48,0.00635398784652352,-0.0369188748300076,-0.00183601281605661,0.0273451507091522,0.0200376603752375,-0.02150615490973
49,0.00660606892779469,-0.0383522137999535,-1.29814516185434E-05,0.0284114498645067,0.0228783674538136,-0.0211193561553955
50,0.00731337536126375,-0.0392269939184189,0.00110729492735118,0.0293241403996944,0.0264313109219074,-0.0198380798101425
51,0.00727203814312816,-0.0411723963916302,0.000801794580183923,0.0284372996538877,0.029720026999712,-0.0207656100392342
52,0.00595650775358081,-0.0445045456290245,-0.000452538835816085,0.0260016471147537,0.0318741239607334,-0.0242686923593283
53,0.00479142321273685,-0.0475577227771282,-0.000653005670756102,0.0247563477605581,0.0336186923086643,-0.027550658211112
54,0.0050094835460186,-0.0489466115832329,0.0009785977890715,0.0260880645364523,0.0356463491916656,-0.0287199877202511
55,0.00641185464337468,-0.0490656122565269,0.00329795363359153,0.0284254029393196,0.0381067618727684,-0.0286654364317656
56,0.00832574255764484,-0.0488425083458424,0.00533979292958975,0.0300356447696686,0.0409256517887115,-0.028842568397522
57,0.0101368054747581,-0.0485747456550598,0.00712776929140091,0.0311123244464397,0.0433958247303963,-0.0294845346361399
58,0.0106528308242559,-0.0485177785158157,0.00790658034384251,0.0317951962351799,0.044189989566803,-0.0305259041488171
59,0.00872434675693512,-0.0494070127606392,0.00616278825327754,0.0308133512735367,0.0424475334584713,-0.032650463283062
60,0.00525738019496202,-0.0515070967376232,0.00218686903826892,0.0279546584933996,0.0391671694815159,-0.035740926861763
61,0.00253759347833693,-0.0537097230553627,-0.00198496785014868,0.0250284057110548,0.0363989323377609,-0.0379312969744205
62,0.00260556768625975,-0.0542691573500633,-0.00392471067607403,0.0244059097021818,0.0362554378807545,-0.0374253056943417
63,0.00511740567162633,-0.0527967140078545,-0.00327307800762355,0.0259312186390162,0.038723424077034,-0.0346189700067043
64,0.00762732699513435,-0.0505248680710793,-0.00202589412219822,0.0270450934767723,0.0412250310182571,-0.0318020880222321
65,0.00925622694194317,-0.0486820936203003,-0.00116854161024094,0.0268011931329966,0.0424153469502926,-0.03102657943964
66,0.00975267589092255,-0.0480278134346008,-0.0014633045066148,0.0252130012959242,0.0419202856719494,-0.0332643054425716
67,0.00886294897645712,-0.0486484803259373,-0.00332236429676414,0.0225790906697512,0.04007563367486,-0.0378923080861568
68,0.00788392312824726,-0.0497581847012043,-0.00491957506164908,0.0206662323325872,0.0392078869044781,-0.0425540171563625
69,0.0074138711206615,-0.0505647324025631,-0.00539663154631853,0.0207335259765387,0.0400384515523911,-0.0458783134818077
70,0.00654677208513021,-0.0507939830422401,-0.00547240115702152,0.0219624657183886,0.0408991649746895,-0.0485895834863186
71,0.00517332786694169,-0.0503565408289433,-0.00495285214856267,0.0224118791520596,0.0412445925176144,-0.051001600921154
72,0.00429089087992907,-0.0492057651281357,-0.00386053556576371,0.0212165210396051,0.0416355580091476,-0.0523582436144352
73,0.00494814477860928,-0.0469923689961433,-0.00248504267074168,0.0198744032531977,0.0430104956030846,-0.0518747977912426
74,0.00695252325385809,-0.043598186224699,-0.000865543261170387,0.0198167990893126,0.0455555617809296,-0.0500049702823162
75,0.00834519229829311,-0.0403470769524574,-0.000227534997975454,0.0196710973978043,0.046997707337141,-0.04915576800704
76,0.00841398909687996,-0.0382856801152229,-0.00107762904372066,0.018604027107358,0.0459831915795803,-0.0500811077654362
77,0.00889616459608078,-0.0365007221698761,-0.00172930292319506,0.018864369019866,0.0442654378712177,-0.0501492023468018
78,0.0101807517930865,-0.0344163402915001,-0.00200670654885471,0.0207014009356499,0.0425650961697102,-0.0486819371581078
79,0.0109721655026078,-0.032716166228056,-0.00303072179667652,0.0219399314373732,0.0403411015868187,-0.0476621203124523
80,0.0118448976427317,-0.0308531522750854,-0.00279134837910533,0.0236487518996,0.0402759239077568,-0.0464085787534714
81,0.0134556954726577,-0.0283517446368933,-0.000166347832418978,0.0265923719853163,0.0434232465922832,-0.0444172061979771
82,0.015126958489418,-0.0263412594795227,0.00190400774590671,0.0280390400439501,0.0455769784748554,-0.0442635305225849
83,0.0174463856965303,-0.0246775541454554,0.00237797107547522,0.0276623461395502,0.0452242940664291,-0.0459741875529289
84,0.019465671852231,-0.0228920839726925,0.00149801676161587,0.0261336714029312,0.0433939434587955,-0.0480913184583187
85,0.0183911845088005,-0.0218829121440649,-0.00159729924052954,0.0223275646567345,0.0398828834295273,-0.051325298845768
86,0.0144265443086624,-0.021777393296361,-0.00571687798947096,0.0173413660377264,0.0362484641373158,-0.055320143699646
87,0.00967961736023426,-0.0220531485974789,-0.00917696207761765,0.0131075866520405,0.0341080464422703,-0.0590139478445053
88,0.00656568584963679,-0.0219875294715166,-0.0109072094783187,0.0105060497298837,0.0337385945022106,-0.0618702694773674
89,0.00636983942240477,-0.0210063923150301,-0.0105018382892013,0.00943401269614697,0.034887820482254,-0.0637713447213173
90,0.00756838591769338,-0.0195545293390751,-0.0092845456674695,0.00826407596468925,0.0365599170327187,-0.0658883526921272
91,0.00861903931945562,-0.0179801769554615,-0.00824208464473486,0.00630588131025434,0.0384158231317997,-0.0687059536576271
92,0.00888955593109131,-0.0165205169469118,-0.00802898313850164,0.00378617225214839,0.0398649908602238,-0.0721385404467583
93,0.00879528280347586,-0.0150661692023277,-0.00842958968132734,0.00153093389235437,0.0408939681947231,-0.0748861134052277
94,0.00928379967808723,-0.0131218014284968,-0.0082737747579813,0.000499255082104355,0.0425713323056698,-0.0750563740730286
95,0.00943905767053366,-0.0113194221630692,-0.00855823885649443,-0.000528762931935489,0.0435732677578926,-0.0743093863129616
96,0.00846697483211756,-0.0102923130616546,-0.0107623366639018,-0.00236208341084421,0.0420369505882263,-0.0749904736876488
97,0.00773931993171573,-0.00980201456695795,-0.0133100608363748,-0.00395446317270398,0.0395436137914658,-0.0773118734359741
98,0.00800800696015358,-0.00961058866232634,-0.0142402723431587,-0.00554843712598085,0.0380184985697269,-0.0809102430939674
99,0.00856367591768503,-0.00888515077531338,-0.0140571659430861,-0.00760268187150359,0.0372287705540657,-0.0840137228369713
100,0.00882434844970703,-0.00704112974926829,-0.0140415690839291,-0.00939737912267447,0.0363403260707855,-0.0851234272122383
101,0.00869941059499979,-0.00479924539104104,-0.0144634041935205,-0.010323197580874,0.0347239971160889,-0.0846906825900078
102,0.00828807987272739,-0.00309563940390944,-0.0150045212358236,-0.0103590860962868,0.0324310548603535,-0.0835984647274017
103,0.00742956018075347,-0.00242325593717396,-0.0157801024615765,-0.0103783942759037,0.030105859041214,-0.0829005017876625
104,0.00727708265185356,-0.00187774084042758,-0.015762772411108,-0.0100571652874351,0.0294870585203171,-0.0822341218590736
105,0.00918646063655615,-0.00037595207686536,-0.0137170432135463,-0.0083574503660202,0.0314583256840706,-0.0803913027048111
106,0.0120182707905769,0.00113276008050889,-0.0110240830108523,-0.00610999623313546,0.0339890792965889,-0.0778713077306747
107,0.0141708441078663,0.00174595275893807,-0.00972144864499569,-0.00441028596833348,0.0353224165737629,-0.0757448151707649
108,0.0148238074034452,0.00168407044839114,-0.0105513725429773,-0.00425859075039625,0.035334337502718,-0.0752873420715332
109,0.014752171933651,0.00168233492877334,-0.0120374364778399,-0.00513921026140451,0.0351173169910908,-0.0762199684977531
110,0.0159193482249975,0.00257925060577691,-0.0119818020612001,-0.00454710563644767,0.0363056734204292,-0.0760009214282036
111,0.0185793191194534,0.00419212551787496,-0.0103550320491195,-0.00199217302724719,0.0391109548509121,-0.0740702599287033
112,0.0222368258982897,0.0063867517746985,-0.00745368469506502,0.00164227711502463,0.0432402491569519,-0.0716104432940483
113,0.0262301973998547,0.00907113123685122,-0.00359887676313519,0.00523696606978774,0.0480667911469936,-0.0693389102816582
114,0.0285411067306995,0.0109017631039023,-0.00100858020596206,0.00631981156766415,0.0515324361622334,-0.0682200640439987
115,0.0278290491551161,0.0105528002604842,-0.00141765165608376,0.00365884974598885,0.052255492657423,-0.0693855583667755
116,0.025152450427413,0.00848744530230761,-0.00401779264211655,-0.000610060582403094,0.050826720893383,-0.0724583119153976
117,0.0223091505467892,0.00655300822108984,-0.00733391754329205,-0.00344979949295521,0.0484404563903809,-0.0752082541584969
118,0.0203584972769022,0.00585933960974216,-0.010381537489593,-0.0037635019980371,0.0465772151947021,-0.0766845196485519
119,0.019580876454711,0.005709208548069,-0.0120847234502435,-0.00289788236841559,0.0465859174728394,-0.0787609443068504
120,0.0194515082985163,0.00552447885274887,-0.0118812611326575,-0.00293184444308281,0.0481570400297642,-0.0821631997823715
121,0.0187399759888649,0.00591704482212663,-0.0107246516272426,-0.00462370831519365,0.0494984947144985,-0.0848874002695084
122,0.0167941227555275,0.00712465029209852,-0.00982066337019205,-0.00718913972377777,0.0493597202003002,-0.0855729877948761
123,0.0144065609201789,0.00852986518293619,-0.00967763178050518,-0.00975962821394205,0.0475926958024502,-0.0850636065006256
124,0.0126772448420525,0.00971643161028624,-0.0105632795020938,-0.0120936091989279,0.0446892082691193,-0.0846834480762482
125,0.0123682022094727,0.0109141562134027,-0.0121272392570972,-0.013649326749146,0.0420305989682674,-0.0843300521373749
126,0.0142812756821513,0.0125814098864794,-0.0128565076738596,-0.0133767649531364,0.0415775179862976,-0.0828179121017456
127,0.0181134194135666,0.0146574908867478,-0.0118905892595649,-0.0113612608984113,0.0438184216618538,-0.0798005238175392
128,0.0215080883353949,0.0162133276462555,-0.0111098363995552,-0.00985862500965595,0.0463606715202332,-0.0768648460507393
129,0.0228871665894985,0.017159404233098,-0.0119513487443328,-0.00997790321707726,0.0469620451331139,-0.0751818269491196
130,0.0232306625694036,0.0184328071773052,-0.0129148839041591,-0.0100077409297228,0.0462749004364014,-0.0740678235888481
131,0.0242728590965271,0.0203956067562103,-0.0119435796514153,-0.00796970538794994,0.0463872849941254,-0.0722056925296783
132,0.0256455838680267,0.0223122145980597,-0.00978532619774342,-0.00464516133069992,0.0470118001103401,-0.0698800906538963
133,0.0257455576211214,0.0234513208270073,-0.00882616546005011,-0.00247010425664485,0.0460266172885895,-0.0686302334070206
134,0.0246093682944775,0.0241240691393614,-0.0092332735657692,-0.00175565970130265,0.0435273051261902,-0.0682114064693451
135,0.0230457168072462,0.0244288183748722,-0.00965213216841221,-0.00160016759764403,0.0413514785468578,-0.067630298435688
136,0.0219903010874987,0.0241140946745873,-0.00904847402125597,-0.00176287605427206,0.0408952906727791,-0.0669276863336563
137,0.0216677580028772,0.02308439463377,-0.00777072086930275,-0.0026411993894726,0.0415519066154957,-0.0669036954641342
138,0.0212636701762676,0.0213711746037006,-0.00707895215600729,-0.00423701712861657,0.0418470911681652,-0.0680513232946396
139,0.0207610391080379,0.0195856913924217,-0.00713148526847363,-0.00585169671103358,0.0418997965753078,-0.0699772387742996
140,0.0208014082163572,0.0185287427157164,-0.00725347176194191,-0.00711766630411148,0.0421116761863232,-0.0721147209405899
141,0.021023390814662,0.018294220790267,-0.00769913382828236,-0.00810489524155855,0.041544433683157,-0.0744624584913254
142,0.0211508702486753,0.0186374932527542,-0.00857571512460709,-0.00798307172954082,0.0401478372514248,-0.076624907553196
143,0.0215442925691605,0.0189618207514286,-0.00904316827654839,-0.00665296847000718,0.038856279104948,-0.0780969709157944
144,0.021766372025013,0.0185749810189009,-0.00927659962326288,-0.00616216147318482,0.0370468385517597,-0.0788928046822548
145,0.021432189270854,0.0183009412139654,-0.00993799790740013,-0.00688499165698886,0.0338136032223701,-0.0778403207659721
146,0.0211757440119982,0.0192779488861561,-0.0105724353343248,-0.00706717185676098,0.0302830319851637,-0.0744628608226776
147,0.0213114209473133,0.0207334943115711,-0.0108539992943406,-0.00667977379634976,0.0279710069298744,-0.0713919252157211
148,0.0207778457552195,0.0209923796355724,-0.0117270825430751,-0.00763940159231424,0.026122672483325,-0.0715650841593742
149,0.0187618583440781,0.0194189008325338,-0.0135714365169406,-0.0106506776064634,0.0238713175058365,-0.0750077962875366
150,0.0159435458481312,0.0167820658534765,-0.0152319939807057,-0.0140601666644216,0.0222605429589748,-0.0791364833712578
151,0.0139336986467242,0.0149885611608624,-0.0154214045032859,-0.0150023689493537,0.0224183835089207,-0.0806180983781815
152,0.0133076533675194,0.0151167456060648,-0.0148329064249992,-0.0127241732552648,0.0232733637094498,-0.0786941573023796
153,0.0135269248858094,0.0161780659109354,-0.0148597517982125,-0.00900369230657816,0.0232497118413448,-0.0755146518349648
154,0.0143501097336411,0.0167193748056889,-0.0151450131088495,-0.00499378982931376,0.0226427000015974,-0.0725577771663666
155,0.0145476739853621,0.0155816795304418,-0.0160054117441177,-0.00213218200951815,0.0212092436850071,-0.0704952925443649
156,0.0135511886328459,0.0128258569166064,-0.0178710799664259,-0.00136890145950019,0.0190149880945683,-0.0689656510949135
157,0.0126264961436391,0.009915916249156,-0.0196056365966797,-0.0019170114537701,0.0174944382160902,-0.06669070571661
158,0.0118969911709428,0.00778518477454782,-0.0209106635302305,-0.00331676355563104,0.0165072213858366,-0.0642582401633263
159,0.011352900415659,0.00657003605738282,-0.0215626582503319,-0.00435664411634207,0.0157738756388426,-0.0623971782624722
160,0.0114834988489747,0.00593454763293266,-0.0211081746965647,-0.00415948592126369,0.0155542911961675,-0.0607610084116459
161,0.0112521881237626,0.00470963632687926,-0.0207070559263229,-0.0046088257804513,0.01464753318578,-0.0603090636432171
162,0.0102628581225872,0.00247464911080897,-0.0208453275263309,-0.00630213273689151,0.012938623316586,-0.0611428320407867
163,0.00984498206526041,0.000164788230904378,-0.0203891396522522,-0.00710236420854926,0.0125113008543849,-0.0612401589751244
164,0.0100253205746412,-0.00194534659385681,-0.0193905420601368,-0.00639958679676056,0.0137057928368449,-0.060217559337616
165,0.00893911719322205,-0.00458017364144325,-0.0195833239704371,-0.00635381834581494,0.0137564986944199,-0.0603523887693882
166,0.00612305384129286,-0.00729070138186216,-0.0217025969177485,-0.00832129176706076,0.0113542787730694,-0.0622844323515892
167,0.00331805623136461,-0.00858024321496487,-0.0241999141871929,-0.0105884093791246,0.00843091029673815,-0.0635849237442017
168,0.000963839702308178,-0.00901402533054352,-0.0262887999415398,-0.0115351555868983,0.00553132919594646,-0.0638144686818123
169,-0.0010745496256277,-0.0100515773519874,-0.027906559407711,-0.0110966609790921,0.00253832107409835,-0.0644956156611443
170,-0.00128610501997173,-0.0111156487837434,-0.0274244509637356,-0.00941147841513157,0.00175783527083695,-0.0648401901125908
171,-0.000152481545228511,-0.0117589617148042,-0.0255461093038321,-0.00800862722098827,0.00325243035331368,-0.0638702809810638
172,-7.41361654945649E-05,-0.0129300700500607,-0.0251283049583435,-0.0087145222350955,0.00432314071804285,-0.0627437680959702
173,-0.000396337854908779,-0.0143466293811798,-0.0255101379007101,-0.0104373740032315,0.00537702487781644,-0.0619693212211132
174,0.000946776708588004,-0.0145325465127826,-0.0245743803679943,-0.0109896436333656,0.00841945316642523,-0.0606225058436394
175,0.00351500208489597,-0.0132258543744683,-0.0226386561989784,-0.0102135585620999,0.012868064455688,-0.0583552457392216
176,0.0061183157376945,-0.0110510243102908,-0.0202869176864624,-0.00856542214751244,0.0175428036600351,-0.0550933182239532
177,0.00799628626555204,-0.00911834836006165,-0.0178837217390537,-0.00657432852312922,0.0215820632874966,-0.0515652224421501
178,0.00791832525283098,-0.00889440812170506,-0.0169954113662243,-0.005623041652143,0.0230796430259943,-0.0500009804964066
179,0.00587134482339025,-0.00979103241115808,-0.0179252102971077,-0.00592146534472704,0.0214911960065365,-0.0507814288139343
180,0.00273036444559693,-0.0102589447051287,-0.020044706761837,-0.0072883190587163,0.0179270673543215,-0.0527436845004559
181,-0.000195563799934462,-0.00975757837295532,-0.0224346984177828,-0.00902620237320662,0.0145253157243133,-0.0543507635593414
182,-0.000659511832054704,-0.00774385966360569,-0.0225697755813599,-0.00845401640981436,0.014237149618566,-0.0526994056999683
183,0.00147272692993283,-0.00475494004786015,-0.0197846051305532,-0.00517832022160292,0.0170486774295568,-0.0477202534675598
184,0.00327074737288058,-0.00273681385442615,-0.0168356467038393,-0.00277670449577272,0.0195475537329912,-0.0435953363776207
185,0.0028193574398756,-0.00265642628073692,-0.0157724339514971,-0.00362378242425621,0.0192842818796635,-0.0429080799221992
186,0.00148542004171759,-0.00400448171421885,-0.0161047820001841,-0.00676728505641222,0.0168342515826225,-0.0448943749070168
187,0.000786185846664011,-0.00560303777456284,-0.0167313013225794,-0.0107400845736265,0.0139441369101405,-0.0483273901045322
188,0.00144746201112866,-0.00547683471813798,-0.015718737617135,-0.0131144244223833,0.0129707576707006,-0.0505252331495285
189,0.00368213234469295,-0.00256117875687778,-0.0123381894081831,-0.0119020128622651,0.0146435890346766,-0.0488273948431015
190,0.00574408331885934,0.00156644161324948,-0.00956068839877844,-0.00901972595602274,0.0161804873496294,-0.0450544320046902
191,0.00602392060682178,0.00485380133613944,-0.0098399855196476,-0.00709327962249517,0.0156482737511396,-0.0431086719036102
192,0.00527152419090271,0.00683684600517154,-0.0118933478370309,-0.00667211972177029,0.0142152355983853,-0.0443782545626163
193,0.00536392675712705,0.00844263564795256,-0.0128288408741355,-0.00692458869889379,0.0139366080984473,-0.0464226715266705
194,0.00628856243565679,0.0104029104113579,-0.012255989946425,-0.00717454915866256,0.014314666390419,-0.04629822447896
195,0.0065851267427206,0.0126081295311451,-0.0116751529276371,-0.00749109592288733,0.0132358055561781,-0.0438830703496933
196,0.0060991938225925,0.0151028642430902,-0.0114466110244393,-0.00751031609252095,0.0105345463380218,-0.0405460111796856
197,0.00490740034729242,0.0175050552934408,-0.0122037399560213,-0.00753336353227496,0.0064031002111733,-0.038151491433382
198,0.003129827324301,0.0190743170678616,-0.0144213149324059,-0.00846503395587206,0.00159627397079021,-0.0381276607513428
199,0.00194950762670487,0.0199575070291758,-0.0164984911680222,-0.0098560368642211,-0.00128586671780795,-0.0399513803422451
200,0.00182854966260493,0.0207746587693691,-0.0172008611261845,-0.0109123401343822,-0.00122249207925051,-0.0420714169740677
201,0.00215752585791051,0.0220881290733814,-0.0171174295246601,-0.0116930669173598,0.000105996659840457,-0.0434775650501251
202,0.0034287553280592,0.0246826112270355,-0.016350157558918,-0.0118996817618608,0.00173914548940957,-0.0434585697948933
203,0.00622712122276425,0.0287488605827093,-0.0148500436916947,-0.01144880335778,0.00379306077957153,-0.0421556830406189
204,0.00876298174262047,0.032940998673439,-0.0143525255843997,-0.0120646012946963,0.00486096553504467,-0.0416342504322529
205,0.00976911280304194,0.0359461009502411,-0.0156494863331318,-0.014634856954217,0.00423879688605666,-0.0435037799179554
206,0.0102301891893148,0.0377116911113262,-0.0169374961405993,-0.0176007486879826,0.00335682556033134,-0.0466971807181835
207,0.0108122136443853,0.0387785024940968,-0.0168232247233391,-0.0194306019693613,0.00283764954656363,-0.049067534506321
208,0.0114146275445819,0.0397151000797749,-0.0158182606101036,-0.0201881863176823,0.00221278495155275,-0.0498978085815907
209,0.0111837843433023,0.040342777967453,-0.0154237067326903,-0.0213314369320869,0.000767783843912184,-0.0503953695297241
210,0.00949468556791544,0.0403583236038685,-0.0161943789571524,-0.0234954617917538,-0.00136782450135797,-0.0512269511818886
211,0.00669446587562561,0.039674136787653,-0.0179266855120659,-0.0263317599892616,-0.00359294470399618,-0.0524570755660534
212,0.00389487016946077,0.0382338017225266,-0.020179245620966,-0.0291502512991428,-0.0053876144811511,-0.054559800773859
213,0.00273924157954752,0.0367589294910431,-0.0214666537940502,-0.0303287636488676,-0.00556271150708199,-0.0566640608012676
214,0.00354856299236417,0.0359257385134697,-0.020784642547369,-0.0288463700562716,-0.00380482967011631,-0.056795597076416
215,0.00542725343257189,0.0354592725634575,-0.0182822346687317,-0.0249035526067019,-0.00061030121287331,-0.0539874397218227
216,0.00642345519736409,0.0340789034962654,-0.0157418418675661,-0.0207670982927084,0.0025958965998143,-0.0500256679952145
217,0.00523137021809816,0.0309994220733643,-0.0152343353256583,-0.0185748245567083,0.00422615045681596,-0.0473464205861092
218,0.00375787587836385,0.0268508736044168,-0.0155101837590337,-0.0172380972653627,0.00550225796177983,-0.046203825622797
219,0.00371464574709535,0.0221872329711914,-0.0144318798556924,-0.0159870442003012,0.00780837144702673,-0.0457079596817493
220,0.00419864011928439,0.0171949695795774,-0.0126363532617688,-0.0154196582734585,0.0100168865174055,-0.0445132069289684
221,0.00459415838122368,0.0122589999809861,-0.0108322771266103,-0.0142366224899888,0.011586363427341,-0.0410346500575542
222,0.00496557867154479,0.00723608350381255,-0.00886151194572449,-0.0110687175765634,0.0128901777788997,-0.0355046205222607
223,0.00460919924080372,0.00132322532590479,-0.00753590511158109,-0.00718749035149813,0.0135330380871892,-0.0301504582166672
224,0.00331364083103836,-0.00576210021972656,-0.00713430484756827,-0.00397073710337281,0.0138053251430392,-0.0259426273405552
225,0.00133093004114926,-0.0138972271233797,-0.00725060794502497,-0.00142872391734272,0.0142419068142772,-0.0219586919993162
226,-0.000571064883843064,-0.0226735472679138,-0.00728369643911719,0.00150114484131336,0.0151008674874902,-0.016750805079937
227,-0.00147407315671444,-0.0317038558423519,-0.00661924993619323,0.00560368038713932,0.0167120266705751,-0.0101180346682668
228,-0.00245805806480348,-0.0415139980614185,-0.00615520775318146,0.00951667223125696,0.018196627497673,-0.00428345985710621
229,-0.00452279206365347,-0.0525652430951595,-0.00683921063318849,0.0121854552999139,0.0188964270055294,-0.000880983949173242
230,-0.00652165850624442,-0.0641716569662094,-0.00757843209430575,0.0149705316871405,0.0197474639862776,0.00134441023692489
231,-0.0077319610863924,-0.0754110142588615,-0.00722330017015338,0.0191145949065685,0.0209025368094444,0.00429479824379086
232,-0.00893557537347078,-0.0861829370260239,-0.00627892650663853,0.0237493570894003,0.0212599150836468,0.00840527936816216
233,-0.0100471107289195,-0.0959236025810242,-0.00486545218154788,0.0282100513577461,0.0215772371739149,0.0141794346272945
234,-0.00981195271015167,-0.103222094476223,-0.00211553554981947,0.0334092490375042,0.0242952685803175,0.022633733227849
235,-0.00832159630954266,-0.108362980186939,0.00156807329040021,0.0393232144415379,0.0295480862259865,0.0325981006026268
236,-0.00692049134522676,-0.113138072192669,0.00442689238116145,0.0446277558803558,0.0348506979644299,0.0417435020208359
237,-0.0066421190276742,-0.118434138596058,0.00491732871159911,0.0484105981886387,0.0376259870827198,0.0493266098201275
238,-0.00777498167008162,-0.124567396938801,0.00307979295030236,0.0505410023033619,0.0370288081467152,0.0549648776650429
239,-0.00943155214190483,-0.131880074739456,0.000958367134444416,0.0517207346856594,0.0347164869308472,0.058021042495966
240,-0.0105559462681413,-0.140051051974297,0.000406021456001326,0.0527262948453426,0.0331934057176113,0.0589455887675285
241,-0.0110332919284701,-0.148331388831139,0.00152297073509544,0.054003931581974,0.0338239744305611,0.0595220997929573
242,-0.0114012025296688,-0.156257897615433,0.00309796980582178,0.0562993809580803,0.0358329601585865,0.0615760684013367
243,-0.0119813689962029,-0.16381248831749,0.00445153471082449,0.0599804259836674,0.037602674216032,0.0654386803507805
244,-0.0134437680244446,-0.171390235424042,0.00533762527629733,0.0633261501789093,0.0378870666027069,0.0698982626199722
245,-0.0169740039855242,-0.179288119077683,0.00425499305129051,0.0640704557299614,0.0357572138309479,0.0737684443593025
246,-0.021051786839962,-0.186688333749771,0.00170857936609536,0.0635875090956688,0.0332424864172935,0.0776174739003181
247,-0.0233180336654186,-0.193029776215553,-0.000163446486112662,0.0639637857675552,0.0329885669052601,0.0816860720515251
248,-0.0247010197490454,-0.199124231934547,-0.00177064281888306,0.0638762712478638,0.0336035192012787,0.0841918662190437
249,-0.0258502326905727,-0.204349666833878,-0.00297749554738402,0.0633054003119469,0.0335320793092251,0.0855738073587418
250,-0.0257141254842281,-0.206993624567986,-0.00237056869082153,0.0643288493156433,0.0330846309661865,0.0883592143654823
251,-0.0243016947060823,-0.207069903612137,-0.000591344316489995,0.0668404400348663,0.031855121254921,0.0925874561071396
252,-0.021491102874279,-0.204831004142761,0.00192156038247049,0.0701084360480309,0.0306911747902632,0.0973562151193619
253,-0.0175015516579151,-0.20015624165535,0.00503911729902029,0.0733708888292313,0.0310576874762774,0.101803280413151
254,-0.0146890571340919,-0.194206431508064,0.00694382144138217,0.074460081756115,0.0316299013793468,0.103863060474396
255,-0.0146399298682809,-0.188016280531883,0.00690386677160859,0.072919562458992,0.0307643935084343,0.103441752493382
256,-0.0161944534629583,-0.181298896670341,0.00623946310952306,0.0706034973263741,0.0287683270871639,0.102505169808865
257,-0.0169308930635452,-0.173406541347504,0.00665534846484661,0.0689136385917664,0.0271367598325014,0.101918548345566
258,-0.0165816936641932,-0.16468146443367,0.00785257574170828,0.0672812908887863,0.0259540155529976,0.100713163614273
259,-0.0167710650712252,-0.156612947583199,0.00819955393671989,0.0646791085600853,0.0239558778703213,0.0978509932756424
260,-0.0168429929763079,-0.149571910500526,0.0083054332062602,0.0621197931468487,0.0220799539238214,0.0944575294852257
261,-0.0161242298781872,-0.14283986389637,0.00857944320887327,0.0597391054034233,0.0209890492260456,0.0910385549068451
262,-0.0152071015909314,-0.13563846051693,0.00831359438598156,0.0567188151180744,0.0198631044477224,0.0871865972876549
263,-0.0139042176306248,-0.12756036221981,0.00803567096590996,0.0536701045930386,0.0186641421169043,0.0835950374603271
264,-0.012933848425746,-0.119519948959351,0.00801028963178396,0.0508284866809845,0.0169174075126648,0.0801202207803726
265,-0.0127777270972729,-0.112031131982803,0.00807416066527367,0.0485615767538548,0.0147454924881458,0.0770484954118729
266,-0.0129523361101747,-0.104794308543205,0.0077936970628798,0.0466855503618717,0.0127321248874068,0.0749534443020821
267,-0.0130620943382382,-0.0977457165718079,0.00700486497953534,0.0443599447607994,0.0108736976981163,0.0725181773304939
268,-0.0132004944607615,-0.0911651626229286,0.00584093574434519,0.0414558090269566,0.00902282167226076,0.0680533945560455
269,-0.014258561655879,-0.0859168544411659,0.00410989159718156,0.0373614616692066,0.00662080431357026,0.06124447286129
270,-0.0161092858761549,-0.0821056142449379,0.00246520154178143,0.0321514792740345,0.00373192457482219,0.0539609454572201
271,-0.017511885613203,-0.0785370841622353,0.00154886895325035,0.027328310534358,0.00128902355208993,0.0488862507045269
272,-0.0170387532562017,-0.0741253420710564,0.00207968172617257,0.0243782140314579,0.000953748764004558,0.0468492545187473
273,-0.0138363633304834,-0.0685382932424545,0.00470695691183209,0.0239781085401773,0.00351277855224907,0.0468531027436256
274,-0.0090447748079896,-0.062253326177597,0.0081615662202239,0.0250885244458914,0.00731819029897451,0.0473180077970028
275,-0.0048333196900785,-0.0563394203782082,0.0107770208269358,0.025825759395957,0.0106442756950855,0.0469129905104637
276,-0.00242553721182048,-0.0515793040394783,0.0119935870170593,0.0251388717442751,0.0125758815556765,0.0452705733478069
277,-0.00220359605737031,-0.0481528714299202,0.0113002145662904,0.022569801658392,0.0114396456629038,0.0424531809985638
278,-0.00311226211488247,-0.0452070459723473,0.00932793784886599,0.0192719902843237,0.00742713129147887,0.0393486134707928
279,-0.004186209756881,-0.0417936965823174,0.00689344247803092,0.0162706859409809,0.0022433630656451,0.0362514927983284
280,-0.00566083332523704,-0.037752628326416,0.00408557476475835,0.0134735489264131,-0.00346737098880112,0.0326205752789974
281,-0.00631905300542712,-0.0326364897191525,0.00254332320764661,0.0121338879689574,-0.00783216394484043,0.0296548847109079
282,-0.00572391040623188,-0.0270399674773216,0.00251978076994419,0.0118715548887849,-0.00999380741268396,0.0273701399564743
283,-0.00551817379891872,-0.0223237816244364,0.00206027878448367,0.0105924224480987,-0.0118832876905799,0.0245594289153814
284,-0.00517369201406837,-0.0178493689745665,0.00184226233977824,0.00887925736606121,-0.0134862307459116,0.0227192267775536
285,-0.00328722433187068,-0.0127518614754081,0.00333193363621831,0.00776939745992422,-0.0134023698046803,0.0226823482662439
286,-0.000844277092255652,-0.00764551572501659,0.00511633977293968,0.00621252972632647,-0.0121960109099746,0.0222669281065464
287,0.00172377785202116,-0.00227655004709959,0.00673740496858954,0.00453206151723862,-0.00956760998815298,0.0209746919572353
288,0.00452527496963739,0.00388861377723515,0.00919307768344879,0.00409964844584465,-0.00522015336900949,0.0199657827615738
289,0.00627413531765342,0.00990439113229513,0.0118098314851522,0.004294210113585,-0.0018680808134377,0.0189235303550959
290,0.00621410273015499,0.0149675784632564,0.013648877851665,0.00399357685819268,-0.00144912197720259,0.0178039316087961
291,0.00427972944453359,0.018977016210556,0.013970984145999,0.00235598557628691,-0.00395225454121828,0.0167219508439302
292,0.000978142954409122,0.0222112853080034,0.0122264213860035,-0.00101460458245128,-0.00908913277089596,0.0147346584126353
293,-0.00173155148513615,0.0257080104202032,0.00992600060999393,-0.00432222057133913,-0.0147701967507601,0.0125479120761156
294,-0.00259142415598035,0.029916187748313,0.00873754546046257,-0.00541587173938751,-0.018533131107688,0.0117952739819884
295,-0.00273635308258235,0.0339437499642372,0.00782765727490187,-0.00476691126823425,-0.020581841468811,0.0115910610184073
296,-0.00323366140946746,0.0372848771512508,0.00640404457226396,-0.00403653969988227,-0.0218421779572964,0.0103499926626682
297,-0.00439449213445187,0.0400125160813332,0.00459044426679611,-0.00498553877696395,-0.0226403661072254,0.00799998641014099
298,-0.00642872741445899,0.0424641482532024,0.00202357675880194,-0.00847145076841116,-0.0236763432621956,0.00550372898578644
299,-0.00843874271959066,0.045630507171154,-0.000502712849993259,-0.0127474833279848,-0.0251725371927023,0.00404236186295748
300,-0.00991278700530529,0.0496028885245323,-0.00209117447957397,-0.0163073446601629,-0.0270448792725801,0.00304062128998339
301,-0.0106379669159651,0.0537336058914661,-0.00295092258602381,-0.018776198849082,-0.0288593322038651,0.00160176167264581
302,-0.00954107474535704,0.0580693706870079,-0.0027597863227129,-0.0194437243044376,-0.0294001027941704,0.000618122750893235
303,-0.00719403056427836,0.062443058937788,-0.00190985493827611,-0.0191057026386261,-0.0286737121641636,9.60689940256998E-05
304,-0.00514141703024507,0.0666839778423309,-0.00130989088211209,-0.0189807768911123,-0.0275170896202326,-0.000815654697362334
305,-0.00343049713410437,0.0712074339389801,-0.000672400812618434,-0.018667658790946,-0.0257711205631495,-0.00180709920823574
306,-0.00157731235958636,0.0760850831866264,0.000524354632943869,-0.0176263563334942,-0.023221468552947,-0.00222059292718768
307,0.000332550203893334,0.0810534730553627,0.0021567908115685,-0.0161908008158207,-0.0208574440330267,-0.00204103998839855
308,0.00193813105579466,0.0856960862874985,0.00368106365203857,-0.0152390757575631,-0.0197457652539015,-0.00206264667212963
309,0.00271493941545486,0.0891188606619835,0.00435514282435179,-0.0158364288508892,-0.0199599545449018,-0.00328153721056879
310,0.00270843436010182,0.0913392379879951,0.00468736607581377,-0.0174286719411612,-0.0206246394664049,-0.00488001480698586
311,0.00175816018600017,0.0927821025252342,0.00491199130192399,-0.0191444754600525,-0.0218866895884275,-0.0059467856772244
312,-0.000144233388709836,0.0933445021510124,0.00416988646611571,-0.0210937019437552,-0.0245635043829679,-0.00716040702536702
313,-0.00126438913866878,0.0937812477350235,0.0034651905298233,-0.0219640415161848,-0.0271790362894535,-0.00817623361945152
314,-0.00161329004913569,0.0942836105823517,0.00299056293442845,-0.0215556975454092,-0.029126850888133,-0.00925161596387625
315,-0.00272113992832601,0.0944722518324852,0.00152390392031521,-0.021611750125885,-0.0313425399363041,-0.011553805321455
316,-0.00404095556586981,0.0951832234859467,-8.22260190034285E-05,-0.0224397070705891,-0.0330352075397968,-0.0141554232686758
317,-0.00453848065808415,0.0970446839928627,-0.000403767684474587,-0.0232782643288374,-0.0331077352166176,-0.0157086681574583
318,-0.00457503506913781,0.0995911136269569,0.000429643667303026,-0.0240238774567842,-0.0319342315196991,-0.0163057632744312
319,-0.0053058760240674,0.102178625762463,0.00118558912072331,-0.0255830027163029,-0.0312585644423962,-0.0169550552964211
320,-0.00715920049697161,0.10426989197731,0.00107789819594473,-0.0281625147908926,-0.032102782279253,-0.0188031531870365
321,-0.00918118190020323,0.105590090155602,0.00071277841925621,-0.0302448030561209,-0.0333607904613018,-0.022039944306016
322,-0.0103555032983422,0.106410913169384,0.0012458860874176,-0.0309821106493473,-0.0339987277984619,-0.0255739353597164
323,-0.00974820554256439,0.107553385198116,0.00362915685400367,-0.0302488338202238,-0.033322986215353,-0.0268022548407316
324,-0.00718642119318247,0.10938835889101,0.00740874046459794,-0.0282139349728823,-0.030722551047802,-0.0244615338742733
325,-0.00411664182320237,0.110931359231472,0.0111082000657916,-0.0263326931744814,-0.0267190337181091,-0.0215147789567709
326,-0.0014313361607492,0.11126920580864,0.0144694298505783,-0.0253515299409628,-0.0219098422676325,-0.0207575894892216
327,0.000599048391450197,0.110704950988293,0.0180506110191345,-0.0243005286902189,-0.0164698045700789,-0.0211184825748205
328,0.00117606180720031,0.10996288061142,0.0221590418368578,-0.0222440585494041,-0.0111431693658233,-0.0207683313637972
329,-7.81940252636559E-05,0.109298355877399,0.0266692377626896,-0.0194292310625315,-0.00765264686197042,-0.0200453232973814
330,-0.00315105100162327,0.108504012227058,0.0299169328063726,-0.0170796290040016,-0.00861150491982698,-0.0199978575110435
331,-0.0064660869538784,0.108442597091198,0.0300905164331198,-0.0160768087953329,-0.0147676998749375,-0.0201803017407656
332,-0.0071704713627696,0.110230103135109,0.0279415231198072,-0.0170743428170681,-0.0227535981684923,-0.0202015433460474
333,-0.00582338869571686,0.112468421459198,0.0246464926749468,-0.0215035639703274,-0.0298555605113506,-0.0213922932744026
334,-0.00503770727664232,0.113609619438648,0.0207883529365063,-0.0282367821782827,-0.0362830683588982,-0.0232239197939634
335,-0.00519544957205653,0.113966658711433,0.0177807100117207,-0.0338457860052586,-0.0416785702109337,-0.0228919703513384
336,-0.00606512371450663,0.113416835665703,0.0160981640219688,-0.0379052571952343,-0.0458303913474083,-0.0199402254074812
337,-0.00822792481631041,0.111384838819504,0.0143318902701139,-0.0422848127782345,-0.0502298437058926,-0.0163052137941122
338,-0.0117214536294341,0.108090937137604,0.011583830229938,-0.0475264675915241,-0.0555597692728043,-0.0128437643870711
339,-0.0150880767032504,0.104371815919876,0.00958338193595409,-0.0515004582703114,-0.0600672662258148,-0.00802815984934568
340,-0.0172575432807207,0.100905634462833,0.010025511495769,-0.0523025318980217,-0.0621888786554337,-0.000990826520137489
341,-0.0193109028041363,0.0977335274219513,0.011318820528686,-0.0515304878354073,-0.0633066818118095,0.00643886718899012
342,-0.0211758334189653,0.095422737300396,0.0123412404209375,-0.0506154410541058,-0.0646182596683502,0.0137320291250944
343,-0.0222697239369154,0.0941608548164368,0.0131232021376491,-0.0502270199358463,-0.0663841068744659,0.0210671741515398
344,-0.0234718918800354,0.0931915193796158,0.0126896733418107,-0.0515639930963516,-0.0695082545280457,0.0271257683634758
345,-0.0240824185311794,0.0929341018199921,0.0116405691951513,-0.0534257255494595,-0.0731395035982132,0.0327401980757713
346,-0.0236680787056684,0.0937891826033592,0.0104590086266398,-0.0545709766447544,-0.076596662402153,0.0395667068660259
347,-0.0233914535492659,0.0948195084929466,0.00812046322971582,-0.0556797310709953,-0.0807415619492531,0.0472835190594196
348,-0.023923683911562,0.0949670597910881,0.00479152146726847,-0.0571014508605003,-0.0857168510556221,0.0550490990281105
349,-0.0250781755894423,0.0942149311304092,0.00185586104635149,-0.0582471899688244,-0.0907277911901474,0.062876857817173
350,-0.0262573547661304,0.0929542705416679,-6.50996371405199E-05,-0.0591886304318905,-0.0949330255389214,0.0702531337738037
351,-0.0274887178093195,0.091267354786396,-0.00160823110491037,-0.0604920163750649,-0.0982606932520866,0.0755631029605865
352,-0.0284504052251577,0.0899167954921722,-0.00260305008850992,-0.0608310885727406,-0.100471816956997,0.0793313905596733
353,-0.0289730709046125,0.0889334231615067,-0.00250405492261052,-0.060252770781517,-0.101514585316181,0.0828335210680962
354,-0.0307339895516634,0.0871810540556908,-0.00254373368807137,-0.0616533979773521,-0.103031635284424,0.0858935713768005
355,-0.0341343209147453,0.0851756110787392,-0.00359710725024343,-0.0647765174508095,-0.106126688420773,0.0897572785615921
356,-0.0368764698505402,0.0845496505498886,-0.00471852766349912,-0.0668468922376633,-0.109468847513199,0.0956530421972275
357,-0.0371673293411732,0.0859854817390442,-0.00458664866164327,-0.0665614828467369,-0.110759600996971,0.103187441825867
358,-0.036639217287302,0.0881562381982803,-0.00306647876277566,-0.0643776878714561,-0.109706088900566,0.111240640282631
359,-0.0386249870061874,0.0882783979177475,-0.00155759870540351,-0.061799306422472,-0.108404897153378,0.117711208760738
360,-0.0428368225693703,0.0855798944830894,-0.000297482591122389,-0.0589992105960846,-0.107321687042713,0.121776953339577
361,-0.046420656144619,0.0816397666931152,0.00123733293730766,-0.0560566559433937,-0.105235517024994,0.123497612774372
362,-0.0483740530908108,0.0777491182088852,0.00191926385741681,-0.0546040125191212,-0.102407194674015,0.122225843369961
363,-0.048665851354599,0.0747138932347298,0.00107628060504794,-0.0548622012138367,-0.0995342433452606,0.118735752999783
364,-0.0469513908028603,0.0729935243725777,5.38407475687563E-05,-0.0548470690846443,-0.096306174993515,0.115031011402607
365,-0.0440451726317406,0.0721050426363945,-0.000273634359473363,-0.0534769147634506,-0.0928372293710709,0.111906938254833
366,-0.0419029779732227,0.0712313875555992,-0.00098901882302016,-0.0522106513381004,-0.0904213339090347,0.108416236937046
367,-0.0407838970422745,0.0703006982803345,-0.00212188065052032,-0.0519889146089554,-0.0892046242952347,0.10423506051302
368,-0.0399654656648636,0.0692817121744156,-0.00269716535694897,-0.0521748922765255,-0.0885314047336578,0.100216493010521
369,-0.0401761345565319,0.0677483528852463,-0.00364835211075842,-0.0528844408690929,-0.0889630541205406,0.0965459123253822
370,-0.0406841114163399,0.0664464086294174,-0.00517632719129324,-0.0534677691757679,-0.0896820947527885,0.0942414700984955
371,-0.0399448871612549,0.0653800144791603,-0.00642224354669452,-0.0531949438154697,-0.0893038511276245,0.0936816558241844
372,-0.038584541529417,0.0628470480442047,-0.0075956117361784,-0.0525191575288773,-0.0883989781141281,0.0932123959064484
373,-0.0372720547020435,0.0583849847316742,-0.00840931572020054,-0.0510710664093494,-0.0871877372264862,0.0920191258192062
374,-0.0358701832592487,0.0527363494038582,-0.00832246337085962,-0.0488032251596451,-0.0852374881505966,0.089974008500576
375,-0.0346191078424454,0.0467983148992062,-0.00814532488584518,-0.0469482690095901,-0.0834251567721367,0.0869302377104759
376,-0.0342981591820717,0.040908869355917,-0.009159947745502,-0.0467733591794968,-0.0831931009888649,0.0828871950507164
377,-0.0342988297343254,0.0354072377085686,-0.0103889424353838,-0.0469256304204464,-0.0833429172635078,0.0796719938516617
378,-0.03233452886343,0.0313561670482159,-0.00924718659371138,-0.0440202318131924,-0.0805733054876328,0.0803231820464134
379,-0.0279118958860636,0.0284992214292288,-0.00529642589390278,-0.0376625657081604,-0.0740294009447098,0.0844663232564926
380,-0.0233485605567694,0.0249363649636507,-0.000628371315542609,-0.0308723114430904,-0.0662972331047058,0.0885943844914436
381,-0.0208763927221298,0.019632063806057,0.00263755093328655,-0.026405481621623,-0.0602238662540913,0.0901725739240646
382,-0.0201697759330273,0.0136568304151297,0.00429880432784557,-0.0243337843567133,-0.0561727471649647,0.0896411165595055
383,-0.0193106327205896,0.00869221612811089,0.0057314895093441,-0.0221427213400602,-0.052600409835577,0.0893055647611618
384,-0.0174934379756451,0.00494931451976299,0.00766973244026303,-0.0179836992174387,-0.0486048832535744,0.0898425579071045
385,-0.0155400205403566,0.00101382937282324,0.00942376255989075,-0.0136231323704124,-0.0448691993951797,0.0892275422811508
386,-0.0142844161018729,-0.00391302956268191,0.0101071195676923,-0.0117762824520469,-0.0424018688499928,0.0868608877062798
387,-0.013667500577867,-0.00896436348557472,0.00961071625351906,-0.0121517106890678,-0.0412193685770035,0.0850526392459869
388,-0.0128328930586576,-0.0131836477667093,0.00881725922226906,-0.0123097561299801,-0.039860837161541,0.0854280889034271
389,-0.0116753363981843,-0.0167798660695553,0.00811426714062691,-0.0112365959212184,-0.0373951867222786,0.0872031599283218
390,-0.0113042332231998,-0.0210368316620588,0.00674469862133265,-0.0104214493185282,-0.0348578281700611,0.0881208181381226
391,-0.0112953213974833,-0.0262299198657274,0.00520631298422813,-0.0101912030950189,-0.0324353277683258,0.0875725522637367
392,-0.0105304829776287,-0.0307446960359812,0.00487468345090747,-0.00884317606687546,-0.0297584589570761,0.0874533504247665
393,-0.00946507509797812,-0.0333772525191307,0.0055661634542048,-0.00601339852437377,-0.0276917666196823,0.0886493548750877
394,-0.00826955866068602,-0.0341380834579468,0.00654996139928699,-0.00237103505060077,-0.0261120367795229,0.0905084535479546
395,-0.00697319256141782,-0.0339999794960022,0.00702051864936948,0.00110529875382781,-0.0246637612581253,0.0916433036327362
396,-0.00671078031882644,-0.0350289866328239,0.00572517514228821,0.00255730305798352,-0.0245979726314545,0.0899779498577118
397,-0.00776111287996173,-0.0384310819208622,0.00291796447709203,0.00155754410661757,-0.0260904468595982,0.0851264521479607
398,-0.00861155986785889,-0.0428285896778107,0.00108117703348398,0.000596469559241086,-0.0267180558294058,0.0801364779472351
399,-0.00853693205863237,-0.0466762706637383,0.00169370789080858,0.00144555687438697,-0.0249898303300142,0.0775626376271248
400,-0.00912282802164555,-0.0507248900830746,0.00253456272184849,0.00192474678624421,-0.0233257915824652,0.0753976479172707
401,-0.0109655177220702,-0.055444460362196,0.00151480303611606,0.000633415125776082,-0.0240184869617224,0.0720787942409515
402,-0.0123786507174373,-0.059254065155983,-0.000298424100037664,-8.21466892375611E-05,-0.0258172824978828,0.0698993727564812
403,-0.0127579504624009,-0.0611634701490402,-0.00175024522468448,0.00106513756327331,-0.0274306945502758,0.0699812024831772
404,-0.0124023826792836,-0.061686348170042,-0.00229944963939488,0.00345756206661463,-0.028205718845129,0.0711190849542618
405,-0.0110660390928388,-0.0616971217095852,-0.00140325387474149,0.0063267657533288,-0.0270957481116056,0.0719720348715782
406,-0.00959599390625954,-0.0622401311993599,-0.000180222923518159,0.00782695133239031,-0.0250244475901127,0.0707588568329811
407,-0.00953892525285482,-0.0640575364232063,-0.000493763480335474,0.00642961682751775,-0.0240402109920979,0.0664823949337006
408,-0.0106844594702125,-0.0666640624403954,-0.00206396682187915,0.00336143816821277,-0.0240805186331272,0.0604975633323193
409,-0.0113374050706625,-0.0689250752329826,-0.00297001819126308,0.00119993800763041,-0.0235752500593662,0.0551308020949364
410,-0.0106228087097406,-0.0705482587218285,-0.0022980144713074,0.00128238648176193,-0.0217466112226248,0.0518597699701786
411,-0.00893002189695835,-0.0719069689512253,-0.000588070368394256,0.00328138377517462,-0.0184907745569944,0.0507356189191341
412,-0.00803597178310156,-0.0738024786114693,-5.27397969563026E-05,0.0044435728341341,-0.0155316162854433,0.0496108345687389
413,-0.00952227972447872,-0.0769622996449471,-0.00231068022549152,0.00225045718252659,-0.0152902156114578,0.0461391285061836
414,-0.011244885623455,-0.0801516696810722,-0.0047039519995451,-0.00103096372913569,-0.0159156527370214,0.0415930524468422
415,-0.0105564771220088,-0.0816607624292374,-0.00457400549203157,-0.00248800148256123,-0.0145343691110611,0.0379862859845161
416,-0.0076097259297967,-0.0811174958944321,-0.00254774792119861,-0.00201648543588817,-0.0112292915582657,0.0355885662138462
417,-0.00357748987153172,-0.0787321105599403,6.8825509515591E-05,-0.000463587581180036,-0.00699103623628616,0.0346355363726616
418,-1.0821177966136E-05,-0.0752092450857162,0.00215820781886578,0.000840540684293956,-0.00329912616871297,0.0346203483641148
419,0.00261173420585692,-0.0710199773311615,0.00347959878854454,0.00203356007114053,-0.00107612647116184,0.0351093448698521
420,0.00420202082023025,-0.0670747607946396,0.00380485644564033,0.00327347032725811,-0.00057152786757797,0.0347991809248924
421,0.00443858653306961,-0.0646665021777153,0.00302339042536914,0.00290148635394871,-0.00170560390688479,0.031346146017313
422,0.00342489988543093,-0.0636119097471237,0.00134715554304421,-0.000117680734547321,-0.00403676694259048,0.0252371598035097
423,0.000771242717746645,-0.0629809498786926,-0.00181834946852177,-0.00499450508505106,-0.00770632131025195,0.0189269445836544
424,-0.00276764971204102,-0.0616414025425911,-0.0056596901267767,-0.00925460364669561,-0.0118263931944966,0.0147287109866738
425,-0.00528824608772993,-0.0586793832480907,-0.00810634531080723,-0.011081388220191,-0.0143903326243162,0.0137437423691154
426,-0.00609604129567742,-0.0547944195568562,-0.00850483868271112,-0.0109490863978863,-0.0145870922133327,0.0142487213015556
427,-0.00574051402509212,-0.0513117536902428,-0.00762864295393229,-0.00994316302239895,-0.0130689758807421,0.0136198224499822
428,-0.00536643015220761,-0.048457607626915,-0.00685172202065587,-0.00882301386445761,-0.0115840956568718,0.0112091694027185
429,-0.00582688115537167,-0.0456553138792515,-0.00706987315788865,-0.008021698333323,-0.0115053877234459,0.00799272488802671
430,-0.00652784295380116,-0.0424956008791924,-0.00758666312322021,-0.00725206127390265,-0.0118896849453449,0.00502825854346156
431,-0.00619823671877384,-0.0390248633921146,-0.0071439822204411,-0.00573568837717175,-0.0110962698236108,0.00284815207123756
432,-0.00484750373288989,-0.0356433317065239,-0.00580986915156245,-0.00333719910122454,-0.00943681597709656,0.00144515174906701
433,-0.00324169034138322,-0.0327567271888256,-0.00425004959106445,-0.000409961765399203,-0.00780668575316668,0.00107506185304374
434,-0.00159429246559739,-0.0304672252386808,-0.00255948840640485,0.00306634185835719,-0.00598545465618372,0.00236102496273816
435,-0.000334609852870926,-0.0290456861257553,-0.0010951169533655,0.00640044547617435,-0.00426081568002701,0.00447836983948946
436,0.000271950353635475,-0.0285401698201895,0.00048544816672802,0.00891085993498564,-0.00248424196615815,0.00586498435586691
437,0.000126765022287145,-0.0283833891153336,0.00253302929922938,0.0104310913011432,-0.000109817818156444,0.00573004176840186
438,-0.000517781008966267,-0.0284091457724571,0.00382208218798041,0.0103082526475191,0.00172739929985255,0.00390014634467661
439,0.000131204462377355,-0.0285256002098322,0.00402244552969933,0.0092083802446723,0.00238219532184303,0.00150290981400758
440,0.00225730356760323,-0.0286556370556355,0.00340738543309271,0.00818574614822865,0.00193116825539619,-0.000894662633072585
441,0.00357282627373934,-0.0296723712235689,0.0015481123700738,0.00687373848631978,0.000322427105857059,-0.00438437052071095
442,0.00381039967760444,-0.0313978157937527,-0.000661050551570952,0.00603667926043272,-0.000992861692793667,-0.00807321630418301
443,0.00409743003547192,-0.0326199121773243,-0.00224790559150279,0.00621585734188557,-0.00109644955955446,-0.01007713470608
444,0.00399653567001224,-0.0338113531470299,-0.00389375700615346,0.0056122331880033,-0.00110791891347617,-0.0111201340332627
445,0.00397188728675246,-0.0354097411036491,-0.00468656560406089,0.00423033675178885,-0.000328028196236119,-0.0122859822586179
446,0.00590308615937829,-0.0363491140305996,-0.0023167715407908,0.00453316047787666,0.00358889857307076,-0.0132033098489046
447,0.00924484618008137,-0.0362231433391571,0.00253552640788257,0.00692135561257601,0.00997571367770433,-0.013653133995831
448,0.0122195584699512,-0.0356266684830189,0.00754596246406436,0.0103224515914917,0.0162171442061663,-0.0131291123107076
449,0.0138812642544508,-0.0354860872030258,0.0110112465918064,0.0137437032535672,0.0202929321676493,-0.0117382481694222
450,0.0135442465543747,-0.0365551970899105,0.0116401007398963,0.015427784062922,0.021093811839819,-0.0114899966865778
451,0.0115626640617847,-0.0383671931922436,0.00952573772519827,0.0146657843142748,0.0192306712269783,-0.0134447552263737
452,0.00925404392182827,-0.0397068671882153,0.00610722368583083,0.0127837099134922,0.0167413670569658,-0.0162173267453909
453,0.00839287880808115,-0.039746567606926,0.00362930446863174,0.011818622238934,0.0163230150938034,-0.0175630338490009
454,0.00931850355118513,-0.0388064906001091,0.00312608224339783,0.0122717143967748,0.0187415387481451,-0.0172763392329216
455,0.0103550022467971,-0.0379728339612484,0.003268240718171,0.0127795981243253,0.0215940847992897,-0.0171085279434919
456,0.0103164659813046,-0.0380352698266506,0.00233971909619868,0.011930862441659,0.0222941506654024,-0.0183573924005032
457,0.00955288391560316,-0.0386484563350677,-7.67166566220112E-05,0.00990073941648006,0.0207801666110754,-0.0208051539957523
458,0.0091028343886137,-0.0387190468609333,-0.00301643717102706,0.00891269464045763,0.018925728276372,-0.0227870102971792
459,0.00971674080938101,-0.0380706414580345,-0.00488778483122587,0.0104902712628245,0.0183685161173344,-0.0232844911515713
460,0.0112944198772311,-0.0373980812728405,-0.00464525446295738,0.0132405003532767,0.0193523932248354,-0.0230812132358551
461,0.0133612798526883,-0.0367641486227512,-0.00274312333203852,0.0156278423964977,0.021033301949501,-0.0222521144896746
462,0.0153611404821277,-0.0359840355813503,-0.000740624906029552,0.0171871017664671,0.022080896422267,-0.020476495847106
463,0.0166735965758562,-0.0355573147535324,0.000390166183933616,0.0174308326095343,0.0218130368739367,-0.0190842133015394
464,0.0173436217010021,-0.0358725041151047,0.00112342555075884,0.0171702746301889,0.0212440975010395,-0.0185939520597458
465,0.016752177849412,-0.0373038947582245,0.00108476576860994,0.0164570715278387,0.0204385910183191,-0.019309664145112
466,0.0144972410053015,-0.0396932661533356,-0.00047301864833571,0.0143310111016035,0.0186291914433241,-0.021858099848032
467,0.0120111471042037,-0.041805412620306,-0.00281356135383248,0.011489525437355,0.0164122395217419,-0.0249275583773851
468,0.0106083583086729,-0.0427494086325169,-0.00523011758923531,0.0090055363252759,0.0143021121621132,-0.0269510298967361
469,0.0109834037721157,-0.0424366816878319,-0.00684804422780871,0.00752422725781798,0.0128763308748603,-0.027948459610343
470,0.0134637728333473,-0.0410809256136417,-0.00622106809169054,0.00794725771993399,0.0135726481676102,-0.0281683225184679
471,0.0172812603414059,-0.0390234068036079,-0.00325035955756903,0.0110217742621899,0.0170364212244749,-0.0268383026123047
472,0.0206211097538471,-0.0368457809090614,-5.8059817092726E-05,0.0155967101454735,0.0215387940406799,-0.0240593329071999
473,0.0221797898411751,-0.0351614989340305,0.00138644769322127,0.0189703125506639,0.0247430149465799,-0.0218008365482092
474,0.0219708029180765,-0.0344240628182888,0.0013552299933508,0.0196375045925379,0.0263132601976395,-0.0218250174075365
475,0.0205836333334446,-0.0348428636789322,0.00112278945744038,0.0183797441422939,0.0271580349653959,-0.023811612278223
476,0.0194504670798779,-0.0355637446045876,0.00206635147333145,0.0175870843231678,0.0284480806440115,-0.0255208574235439
477,0.0203476250171661,-0.0352397598326206,0.00513827940449119,0.0190597008913755,0.0313857570290565,-0.0253606401383877
478,0.022223362699151,-0.0345182158052921,0.0081891780719161,0.0209240596741438,0.034319493919611,-0.0252697933465242
479,0.0230523925274611,-0.0344955176115036,0.00824023596942425,0.0206043347716331,0.034736018627882,-0.0275898911058903
480,0.0234644506126642,-0.034453272819519,0.00593211175873876,0.0190942864865065,0.0339629910886288,-0.0311856586486101
481,0.0239967312663794,-0.0338383577764034,0.00313488929532468,0.0180289428681135,0.0338344275951386,-0.0342633984982967
482,0.0236754287034273,-0.0331065990030766,0.000120157572382595,0.0170058961957693,0.0335021317005157,-0.0368008203804493
483,0.0224653799086809,-0.0323699600994587,-0.00302751176059246,0.015330271795392,0.0321555286645889,-0.0393399819731712
484,0.0214829761534929,-0.0311091672629118,-0.00537006696686149,0.0133416736498475,0.0304633900523186,-0.0416863039135933
485,0.022020410746336,-0.0285986438393593,-0.00600436283275485,0.0125005422160029,0.0297605767846107,-0.0427898205816746
486,0.0249208975583315,-0.0244610942900181,-0.00466755963861942,0.0142703969031572,0.0310533884912729,-0.042072918266058
487,0.0285395011305809,-0.0199262760579586,-0.00253780698403716,0.0170490387827158,0.0328617468476295,-0.0410683527588844
488,0.0304063037037849,-0.016475111246109,-0.00123286247253418,0.0180911421775818,0.0331519246101379,-0.0408387221395969
489,0.0300069041550159,-0.0138320922851563,-0.0013155824271962,0.0171701293438673,0.0321340970695019,-0.0406051836907864
490,0.0286249909549952,-0.0108533836901188,-0.00202140584588051,0.0157719030976295,0.0313869826495647,-0.039975430816412
491,0.0277426298707724,-0.00703319301828742,-0.00212588999420404,0.0150217795744538,0.0320121124386787,-0.0390037633478642
492,0.0268123168498278,-0.00320590613409877,-0.00227257190272212,0.0141783347353339,0.0325180515646935,-0.0384849570691586
493,0.0259597413241863,0.000572702498175204,-0.002525276504457,0.0136960875242949,0.031967394053936,-0.0378728918731213
494,0.0266578700393438,0.00520164193585515,-0.00142493459861726,0.0153913823887706,0.0316927917301655,-0.0352584272623062
495,0.0275096260011196,0.00959462765604258,-0.000533105863723904,0.017257122322917,0.030903410166502,-0.0327047035098076
496,0.0260162763297558,0.0121479313820601,-0.00256632687523961,0.0157022662460804,0.0278156958520412,-0.0341924764215946
497,0.0233038496226072,0.013649819418788,-0.00601737713441253,0.0117144398391247,0.0242460872977972,-0.038920097053051
498,0.0222531091421843,0.0158377923071384,-0.00743911461904645,0.00925219990313053,0.0231133829802275,-0.0427063703536987
499,0.0225299224257469,0.0183447767049074,-0.00707000773400068,0.00871552806347609,0.0233123265206814,-0.0446168445050716
500,0.0213832706212997,0.0195949804037809,-0.00787836406379938,0.00678039807826281,0.0218492988497019,-0.0475239790976048
501,0.0181042719632387,0.0199292078614235,-0.00989031698554754,0.00262227398343384,0.0195249505341053,-0.0521991141140461
502,0.0152316484600306,0.0211897753179073,-0.0100987441837788,-0.000924694119021297,0.0196594707667828,-0.0561575442552567
503,0.0149619290605187,0.0238188877701759,-0.00832410342991352,-0.0027609933167696,0.0218977443873882,-0.0588842332363129
504,0.0171424001455307,0.0273563303053379,-0.00648968853056431,-0.00368200591765344,0.0238389745354652,-0.0610628500580788
505,0.0207985863089561,0.0322095640003681,-0.00428703054785728,-0.00300287664867938,0.0259305667132139,-0.061336811631918
506,0.0249726437032223,0.0385890379548073,-0.000916541088372469,-0.000154800713062286,0.0295553952455521,-0.0590903274714947
507,0.0285020992159843,0.0454604774713516,0.002249950543046,0.00288293999619782,0.0339893735945225,-0.0562619641423225
508,0.0297006666660309,0.0513369254767895,0.0028173488099128,0.00306601799093187,0.0364895462989807,-0.0554851926863194
509,0.0283429548144341,0.0560291111469269,0.000628623587545007,0.00025598585489206,0.0354530215263367,-0.0573427602648735
510,0.0264769811183214,0.0603459030389786,-0.00220499257557094,-0.00266212713904679,0.0325548201799393,-0.0600131489336491
511,0.0252788532525301,0.0639025419950485,-0.00435015838593245,-0.00378841604106128,0.0301026739180088,-0.061881061643362
512,0.0238419957458973,0.0645443201065063,-0.00612964108586311,-0.00383003172464669,0.0283076092600822,-0.0630803853273392
513,0.0209725592285395,0.060508631169796,-0.00849764980375767,-0.00422835675999522,0.0258613806217909,-0.0643568709492683
514,0.0162207037210464,0.0523820668458939,-0.0120720975100994,-0.00527273816987872,0.0219819452613592,-0.0658217296004295
515,0.0110488189384341,0.0425890013575554,-0.0157964304089546,-0.00556107377633452,0.0179877281188965,-0.0663566440343857
516,0.00864062644541264,0.0338743254542351,-0.0172291491180658,-0.00310551933944225,0.0166329201310873,-0.063967764377594
517,0.0097027663141489,0.0277426894754171,-0.0158942956477404,0.00158259284216911,0.0188818871974945,-0.0589973069727421
518,0.0111815584823489,0.0234502833336592,-0.0142139131203294,0.00510036572813988,0.0221803020685911,-0.0550444424152374
519,0.0107832942157984,0.0191372502595186,-0.013866975903511,0.00549124274402857,0.0234771389514208,-0.054199606180191
520,0.00861280504614115,0.0143400598317385,-0.0145039288327098,0.0041993036866188,0.0222905278205872,-0.0551800280809402
521,0.0052686189301312,0.00976656656712294,-0.01558159571141,0.00338325672782958,0.0200758427381516,-0.0567750334739685
522,0.00182882184162736,0.00550013408064842,-0.0162451174110174,0.00356133701279759,0.0184158477932215,-0.0590753145515919
523,-0.000493803119752556,0.00161903013940901,-0.0158086251467466,0.00376354646869004,0.0177838876843452,-0.0614287406206131
524,-0.000830051489174366,-0.000892620009835809,-0.0146995410323143,0.00384946400299668,0.0181337278336287,-0.0616254471242428
525,0.00180724239908159,-0.00132662733085454,-0.0126952547580004,0.00553208775818348,0.0201201066374779,-0.0582443252205849
526,0.00655727880075574,-0.000978717464022338,-0.00988770555704832,0.00913502834737301,0.0234025586396456,-0.0533668212592602
527,0.0105432830750942,-0.00166653422638774,-0.00785701535642147,0.0128627736121416,0.0260844379663467,-0.0499238409101963
528,0.0125834085047245,-0.00304205040447414,-0.00678043533116579,0.0163399316370487,0.0276670232415199,-0.0477070212364197
529,0.0126355132088065,-0.00474686594679952,-0.0063102450221777,0.0189299155026674,0.0287304017692804,-0.0470131859183311
530,0.0112322587519884,-0.00700760679319501,-0.00608772039413452,0.019820436835289,0.0304467659443617,-0.0485482700169086
531,0.0104802343994379,-0.00877092406153679,-0.00469883996993303,0.0207648482173681,0.0339097417891026,-0.0499007776379585
532,0.0109022408723831,-0.010122200474143,-0.00246002641506493,0.022170539945364,0.0373911969363689,-0.0503083877265453
533,0.0110573107376695,-0.012803734280169,-0.00106125418096781,0.0223437268286943,0.0387846603989601,-0.0517394170165062
534,0.00939865782856941,-0.0179977882653475,-0.00182640179991722,0.0200319197028875,0.0376093424856663,-0.0556707456707954
535,0.00621817074716091,-0.0247923452407122,-0.00402506720274687,0.0162060726433992,0.0352198667824268,-0.0610462091863155
536,0.00373424193821847,-0.0308766383677721,-0.00511162588372827,0.0137655567377806,0.0338519215583801,-0.0645199120044708
537,0.00207727495580912,-0.0355764366686344,-0.00534409750252962,0.0129352118819952,0.0329619534313679,-0.0656274557113647
538,0.000595667108427733,-0.0388088822364807,-0.00577813712880015,0.0127453235909343,0.0320431515574455,-0.0656636208295822
539,0.000622788793407381,-0.0396134704351425,-0.00492385867983103,0.0143564185127616,0.0330714508891106,-0.0637113079428673
540,0.00274920556694269,-0.0382754169404507,-0.00196252227760851,0.0182235278189182,0.036632128059864,-0.0597386993467808
541,0.00512247066944838,-0.0368497334420681,0.00131272547878325,0.0225372109562159,0.0404982194304466,-0.0560631640255451
542,0.0057292296551168,-0.0371425114572048,0.00238550151698291,0.0253163762390614,0.042322751134634,-0.0547335036098957
543,0.00542563060298562,-0.0386869087815285,0.00184154137969017,0.0267211496829987,0.042979184538126,-0.0552984364330769
544,0.00506842182949185,-0.0405585616827011,0.00129627762362361,0.0266280993819237,0.0435927249491215,-0.0566763691604137
545,0.00353650888428092,-0.0427635535597801,0.000265475071500987,0.0240676011890173,0.0432290583848953,-0.0587272346019745
546,0.00136444275267422,-0.044424295425415,-0.000376769254216924,0.0210907701402903,0.0426294766366482,-0.0600199103355408
547,-0.000432752072811127,-0.0447429530322552,0.000893959600944072,0.0202642809599638,0.043467853218317,-0.0595302730798721
548,-0.00155634852126241,-0.0440753251314163,0.00362299988046288,0.0214965771883726,0.0459428988397121,-0.0580855868756771
549,-0.000580667518079281,-0.0428373515605927,0.00629174988716841,0.0234586838632822,0.0490388460457325,-0.0563917569816113
550,0.00282175489701331,-0.0414994694292545,0.00735024223104119,0.0246285367757082,0.0512754693627357,-0.0549875274300575
551,0.00594042055308819,-0.0409205704927444,0.00596225261688232,0.0239387284964323,0.0512604303658009,-0.0545308887958527
552,0.00676700519397855,-0.0409546792507172,0.00285270973108709,0.0218617562204599,0.0489954613149166,-0.054587509483099
553,0.00608928734436631,-0.0407813899219036,-0.000639112084172666,0.0190391335636377,0.0458496250212193,-0.0550247058272362
554,0.00518973683938384,-0.0400427952408791,-0.00375208863988519,0.0153242638334632,0.0426212176680565,-0.0566779300570488
555,0.00579537358134985,-0.0377233438193798,-0.00480184750631452,0.0125073986127973,0.0408799536526203,-0.0578955039381981
556,0.00884815491735935,-0.0335073173046112,-0.00276066805236042,0.0123781580477953,0.0421155318617821,-0.0567045882344246
557,0.0125210657715797,-0.0286225881427526,0.000625646149273962,0.013785851188004,0.0450374856591225,-0.0543992146849632
558,0.0146517679095268,-0.0239248014986515,0.0031535467132926,0.0149351246654987,0.0475639253854752,-0.0528990626335144
559,0.0149840749800205,-0.0195896625518799,0.00416492763906717,0.0151586448773742,0.0491191335022449,-0.0525835230946541
560,0.0148367015644908,-0.0154971200972795,0.00451710727065802,0.015020526945591,0.0505817644298077,-0.0526094473898411
561,0.0147262690588832,-0.0117790149524808,0.004343431442976,0.0143467746675015,0.0517802871763706,-0.0527627617120743
562,0.0146235823631287,-0.00815347675234079,0.00350383319891989,0.0129363341256976,0.0519905649125576,-0.0530658736824989
563,0.0151315629482269,-0.00375760928727686,0.00294518447481096,0.0120360860601068,0.0515814125537872,-0.0526877678930759
564,0.0156307555735111,0.000846417213324457,0.00242747087031603,0.0117447879165411,0.0498624965548515,-0.0519486777484417
565,0.0157739371061325,0.00446591433137655,0.00157750525977463,0.0117291994392872,0.046523854136467,-0.0517416074872017
566,0.0162944961339235,0.00715475715696812,0.0010426570661366,0.0125091029331088,0.0429272763431072,-0.0521679632365704
567,0.0171997789293528,0.00963802449405193,0.000926948036067188,0.0139437327161431,0.0400905273854733,-0.0528153665363789
568,0.0176595021039248,0.0118133835494518,0.00069934077328071,0.014868919737637,0.0379492789506912,-0.0536058992147446
569,0.0174274370074272,0.0134796649217606,0.000628520909231156,0.0150383431464434,0.0368486344814301,-0.0544128008186817
570,0.0175169017165899,0.0155861368402839,0.00176663429010659,0.0153114730492234,0.0380143038928509,-0.0541854798793793
571,0.0179586913436651,0.0180822890251875,0.00330995651893318,0.0148521484807134,0.0406077019870281,-0.0536133460700512
572,0.0181946847587824,0.0202394556254148,0.00386861711740494,0.0127807511016726,0.0426310747861862,-0.0545422621071339
573,0.0186355710029602,0.0227100346237421,0.00402874033898115,0.0104353930801153,0.0436879061162472,-0.0564421713352203
574,0.0199512559920549,0.0264661107212305,0.00571731012314558,0.0100389793515205,0.0451387092471123,-0.0566208325326443
575,0.0214784201234579,0.0315643660724163,0.00979674234986305,0.0128284031525254,0.0480927601456642,-0.0531577840447426
576,0.020752901211381,0.0368515700101852,0.0140738366171718,0.0179128311574459,0.0502636581659317,-0.0471044033765793
577,0.0172088574618101,0.0415161103010178,0.0158614702522755,0.0236108098179102,0.0480011217296124,-0.0411735959351063
578,0.0131997540593147,0.0457123853266239,0.0140017662197351,0.0265870187431574,0.0401191078126431,-0.0385306105017662
579,0.0102870035916567,0.0494642332196236,0.00779662514105439,0.0224885866045952,0.027640625834465,-0.0408894270658493
580,0.00853157881647348,0.0530673377215862,-0.00168918317649513,0.0119228353723884,0.0129543896764517,-0.0452800542116165
581,0.0083313537761569,0.0570768937468529,-0.0100346552208066,0.000972311885561794,0.00010034246952273,-0.0461411699652672
582,0.00982751045376062,0.0611876361072063,-0.013523013330996,-0.00577976182103157,-0.00792481191456318,-0.0414884090423584
583,0.0113703552633524,0.0643240138888359,-0.0136424656957388,-0.00968033727258444,-0.0126495407894254,-0.0348041914403439
584,0.0113262115046382,0.0662057921290398,-0.0140343504026532,-0.0140356961637735,-0.0172011088579893,-0.0293754134327173
585,0.0106765236705542,0.0676507353782654,-0.0151473479345441,-0.0191190205514431,-0.0210339482873678,-0.0247348546981812
586,0.0109307197853923,0.069477766752243,-0.0152767095714808,-0.0231985058635473,-0.0227547455579042,-0.0190988704562187
587,0.0120284734293818,0.0725538581609726,-0.0140234092250466,-0.0250507835298777,-0.0241781994700432,-0.0107320444658399
588,0.0132398288697004,0.0770642533898354,-0.0124569954350591,-0.0254463944584131,-0.027422308921814,6.72265668981709E-05
589,0.0131271164864302,0.0815183967351913,-0.0119602158665657,-0.0265031792223454,-0.033427607268095,0.0106737120077014
590,0.0110657755285501,0.0847981944680214,-0.0124922236427665,-0.0291321817785501,-0.0417786166071892,0.0194191783666611
591,0.00857439916580915,0.087441973388195,-0.0130886053666472,-0.0335525162518024,-0.0499982461333275,0.0256679747253656
592,0.00723312515765429,0.0903018936514854,-0.01389598287642,-0.0399871319532394,-0.0563953742384911,0.0298575274646282
593,0.00708998972550035,0.0936973467469215,-0.0152781801298261,-0.0474126860499382,-0.06210832670331,0.0337989032268524
594,0.00710379704833031,0.0975948721170425,-0.0165888965129852,-0.0536151081323624,-0.0683198347687721,0.0389971546828747
595,0.00603438494727016,0.101746000349522,-0.0168774258345366,-0.057041872292757,-0.0742933973670006,0.0462355576455593
596,0.00330647802911699,0.105672411620617,-0.0159768033772707,-0.0587199106812477,-0.0793176665902138,0.0544517375528812
597,0.000110853972728364,0.109260410070419,-0.014502183534205,-0.060609869658947,-0.0837213695049286,0.0613079518079758
598,-0.00209851586259902,0.112696051597595,-0.0136917717754841,-0.0634985640645027,-0.0885472148656845,0.0659937784075737
599,-0.00355490669608116,0.115930072963238,-0.0145121170207858,-0.066846676170826,-0.0942488163709641,0.0699944570660591
600,-0.00476087909191847,0.118978977203369,-0.0155327199026942,-0.0686999186873436,-0.0988780483603477,0.0758145228028297
601,-0.00566719425842166,0.121850825846195,-0.014123709872365,-0.0678385496139526,-0.100067928433418,0.0839840993285179
602,-0.00673679355531931,0.123761028051376,-0.0106068672612309,-0.0665148869156837,-0.098713256418705,0.0914064347743988
603,-0.00856464914977551,0.12382547557354,-0.00780646735802293,-0.0678182244300842,-0.0976744741201401,0.0950201004743576
604,-0.010308064520359,0.122857578098774,-0.00648277904838324,-0.0710887759923935,-0.0977711975574493,0.0962556377053261
605,-0.0113874785602093,0.12201289087534,-0.00582674331963062,-0.0740795135498047,-0.0990998670458794,0.0979109853506088
606,-0.0133971925824881,0.12077996134758,-0.00634529022499919,-0.0764829963445663,-0.103177718818188,0.099700354039669
607,-0.0166906975209713,0.118762373924255,-0.00755353225395083,-0.078259751200676,-0.109444752335548,0.101110331714153
608,-0.0193715691566467,0.117306493222713,-0.0077738999389112,-0.0785464569926262,-0.115295119583607,0.103818498551846
609,-0.0210377629846334,0.117269895970821,-0.00768176838755608,-0.0778343826532364,-0.120194397866726,0.107884354889393
610,-0.0220960006117821,0.11747844517231,-0.00804033596068621,-0.077740766108036,-0.123743340373039,0.110830135643482
611,-0.0225496161729097,0.116577126085758,-0.00824117194861174,-0.0787328034639359,-0.12527734041214,0.111847653985024
612,-0.0229379255324602,0.114408329129219,-0.00848657451570034,-0.0800624117255211,-0.125771343708038,0.111950896680355
613,-0.0228265412151814,0.111746080219746,-0.00837615597993135,-0.0803610682487488,-0.125039950013161,0.112105704843998
614,-0.0222522113472223,0.108698979020119,-0.00781030720099807,-0.0788715779781342,-0.122924715280533,0.112849399447441
615,-0.0222144797444344,0.104583777487278,-0.00701063917949796,-0.0750730112195015,-0.120127476751804,0.114336937665939
616,-0.0220432989299297,0.0998270288109779,-0.00411480944603682,-0.0683589428663254,-0.115766815841198,0.116815142333508
617,-0.0205347239971161,0.0958308950066566,0.00183119939174503,-0.0598815232515335,-0.109197497367859,0.120313622057438
618,-0.0173407513648272,0.0934267342090607,0.00919040478765965,-0.0518849305808544,-0.100898019969463,0.124172955751419
619,-0.0130600910633802,0.0920640081167221,0.0161686819046736,-0.0457004941999912,-0.0916359052062035,0.127007752656937
620,-0.0102317156270146,0.0903726071119308,0.021010534837842,-0.0414922386407852,-0.0834106355905533,0.127564907073975
621,-0.0107264630496502,0.0881945565342903,0.0230459030717611,-0.0377902463078499,-0.0773351937532425,0.126971572637558
622,-0.0127077298238873,0.0859555602073669,0.0233665872365236,-0.033460583537817,-0.0724746063351631,0.12671822309494
623,-0.014189119450748,0.0825226902961731,0.0217670258134604,-0.0309426169842482,-0.0692451298236847,0.124662064015865
624,-0.0149137815460563,0.0772342160344124,0.0180407334119082,-0.0318885184824467,-0.0679619163274765,0.119096837937832
625,-0.0143302418291569,0.071737714111805,0.0146586345508695,-0.0333385765552521,-0.0663651898503304,0.112982250750065
626,-0.0120170610025525,0.0681952238082886,0.0139048993587494,-0.0321601554751396,-0.0627789348363876,0.110658340156078
627,-0.00973946694284678,0.065873347222805,0.0141091989353299,-0.0299381110817194,-0.0592523440718651,0.111459136009216
628,-0.00930297374725342,0.0624104887247086,0.0130094951018691,-0.0291134957224131,-0.0578571073710918,0.111577175557613
629,-0.00935038365423679,0.0583923682570457,0.0120923006907105,-0.0277256369590759,-0.056745458394289,0.111374944448471
630,-0.00893454067409039,0.0549662001430988,0.0125194815918803,-0.0242496449500322,-0.0544317290186882,0.112187467515469
631,-0.00927415955811739,0.0511042401194572,0.0132518038153648,-0.0203488972038031,-0.0513759255409241,0.112538315355778
632,-0.0106225004419684,0.0460941046476364,0.0137982266023755,-0.0172660648822784,-0.0473419055342674,0.111506231129169
633,-0.0125450631603599,0.0400457568466663,0.0139893777668476,-0.0157041326165199,-0.0430021286010742,0.109064541757107
634,-0.0145007641986012,0.0334858261048794,0.0138285579159856,-0.0154850501567125,-0.039751909673214,0.105976141989231
635,-0.0152990268543363,0.0277734752744436,0.0137623539194465,-0.0144960284233093,-0.0373366437852383,0.104663528501987
636,-0.0148990759626031,0.0231521017849445,0.0132799381390214,-0.012027133256197,-0.0353135317564011,0.105440758168697
637,-0.0147823439911008,0.0181049592792988,0.0113802496343851,-0.00979007501155138,-0.0343492217361927,0.105473168194294
638,-0.0157272573560476,0.012145234271884,0.00879956223070621,-0.00856768526136875,-0.0342402346432209,0.103532664477825
639,-0.0161330066621304,0.0068794502876699,0.00782761350274086,-0.00714275520294905,-0.0326365604996681,0.101423375308514
640,-0.0146871320903301,0.00293218716979027,0.0087192365899682,-0.00511616235598922,-0.028871338814497,0.0998702719807625
641,-0.0119845988228917,-0.000671698246151209,0.010005621239543,-0.00274562556296587,-0.024651201441884,0.0987186804413795
642,-0.00914915930479765,-0.00472832564264536,0.0105692213401198,-1.43421166285407E-05,-0.0211498849093914,0.098458468914032
643,-0.00777978589758277,-0.0101418746635318,0.00935175269842148,0.00194512016605586,-0.0186082925647497,0.097977839410305
644,-0.00768126361072063,-0.016726341098547,0.00742462323978543,0.0033996778074652,-0.0153070725500584,0.0971243754029274
645,-0.00757700065150857,-0.0231873150914907,0.00627477653324604,0.0057752188295126,-0.010855907574296,0.0972748622298241
646,-0.0070025990717113,-0.0283498931676149,0.0060333963483572,0.00967026595026255,-0.00709472130984068,0.0989455282688141
647,-0.00585188437253237,-0.0321259014308453,0.00673188781365752,0.0145463822409511,-0.00478122662752867,0.101436153054237
648,-0.00537753198295832,-0.0360482595860958,0.00715450430288911,0.0180990025401115,-0.00495189102366567,0.102660149335861
649,-0.00603380147367716,-0.0402414835989475,0.00692712282761931,0.0200405847281218,-0.00731803709641099,0.102509021759033
650,-0.00632667075842619,-0.0429539792239666,0.00735297612845898,0.022260520607233,-0.00929159019142389,0.102785252034664
651,-0.00532301235944033,-0.0436980873346329,0.00868289172649384,0.0248606707900763,-0.00922409445047379,0.103180065751076
652,-0.00339153758250177,-0.0436984747648239,0.0103754894807935,0.0269463043659925,-0.00692302733659744,0.102109730243683
653,-0.00175775354728103,-0.0442729890346527,0.0117735359817743,0.0280732642859221,-0.00351113779470325,0.0991261303424835
654,-0.00114946719259024,-0.0455633103847504,0.0124672688543797,0.0282715447247028,-0.000414272479247302,0.0950609818100929
655,-0.001556146889925,-0.047194205224514,0.0122774178162217,0.0276168789714575,0.00174843240529299,0.0905998647212982
656,-0.0027683898806572,-0.0489389337599278,0.0112726837396622,0.0262756664305925,0.00327368383295834,0.0860169604420662
657,-0.00357294967398047,-0.0502434894442558,0.0105425687506795,0.0251652225852013,0.00557519914582372,0.0819137766957283
658,-0.00287939817644656,-0.0509627237915993,0.0108336741104722,0.024852566421032,0.00947502069175243,0.0785292312502861
659,-0.00102719583082944,-0.0514485463500023,0.0118266977369785,0.025306448340416,0.0142814898863435,0.0761688277125359
660,0.00121260154992342,-0.0520256012678146,0.0132955284789205,0.0266070794314146,0.018878135830164,0.0751487761735916
661,0.00344118592329323,-0.0530734956264496,0.0150195751339197,0.0285717863589525,0.0223243664950132,0.0748539417982101
662,0.00504728453233838,-0.0547549650073051,0.0160509347915649,0.0308436397463083,0.0243478044867516,0.0747663453221321
663,0.00542537588626146,-0.0569202713668346,0.0157187581062317,0.0333296023309231,0.0262231193482876,0.0748019814491272
664,0.00507522793486714,-0.0594308786094189,0.0148224206641316,0.0355319678783417,0.0296683367341757,0.0742470622062683
665,0.00448927422985435,-0.0623697526752949,0.0139142349362373,0.0360178910195827,0.0339677445590496,0.0718945041298866
666,0.00414581224322319,-0.0650385618209839,0.0132298618555069,0.0348801463842392,0.0374809987843037,0.0683238878846169
667,0.00475576287135482,-0.0664252042770386,0.0132833840325475,0.0340795069932938,0.039725087583065,0.0654700174927711
668,0.005152044352144,-0.0672670677304268,0.0128329992294312,0.0336705669760704,0.0394779033958912,0.0631183311343193
669,0.00386826670728624,-0.0688395202159882,0.0107848672196269,0.032659400254488,0.03627585247159,0.0600990988314152
670,0.00200343993492424,-0.070619210600853,0.00885950215160847,0.0319216884672642,0.0328951515257359,0.0572560243308544
671,0.000455647386843339,-0.071914054453373,0.00787954591214657,0.0312769785523415,0.0314175449311733,0.054640531539917
672,-0.00182929972652346,-0.0733244344592094,0.00617667706683278,0.028862914070487,0.0304726101458073,0.0510307997465134
673,-0.00438200263306499,-0.0744142457842827,0.0039152717217803,0.0256812628358603,0.029117289930582,0.0479524210095406
674,-0.00584773253649473,-0.0741203427314758,0.00255884858779609,0.023954538628459,0.0277192462235689,0.0471105836331844
675,-0.00646961759775877,-0.0730635449290276,0.0020159927662462,0.0235685091465712,0.0262232013046741,0.0472144857048988
676,-0.00663118623197079,-0.0726425424218178,0.00217088661156595,0.0239280201494694,0.0251189507544041,0.0467582046985626
677,-0.00621789461001754,-0.0737296417355537,0.00341910007409751,0.025179972872138,0.0250439494848251,0.0460622683167458
678,-0.00467341393232346,-0.07586669921875,0.00577550986781716,0.0278762225061655,0.0262424424290657,0.0467707142233849
679,-0.00179768155794591,-0.0777341201901436,0.00855142157524824,0.0321215353906155,0.0288500133901834,0.0497035980224609
680,0.00192357576452196,-0.078749343752861,0.0116299940273166,0.0372464135289192,0.0334255807101727,0.0536779388785362
681,0.00615566410124302,-0.0788709074258804,0.0164865255355835,0.0429388172924519,0.0411628372967243,0.0573784559965134
682,0.00942703429609537,-0.0785088837146759,0.0228370353579521,0.0482378825545311,0.0509348027408123,0.0597922317683697
683,0.010012611746788,-0.0787282139062881,0.0278126262128353,0.0514400079846382,0.0587938725948334,0.0597734116017818
684,0.00837553385645151,-0.0804508626461029,0.0289168283343315,0.0518045648932457,0.0614014714956284,0.0570818446576595
685,0.00546572729945183,-0.084089420735836,0.024842981249094,0.0491381138563156,0.057709313929081,0.0518313720822334
686,0.0015032651135698,-0.0890050157904625,0.017022741958499,0.0447111651301384,0.0496237128973007,0.0451328679919243
687,-0.00279943435452878,-0.0938488319516182,0.00927274022251368,0.0410419553518295,0.0409231968224049,0.0391930155456066
688,-0.00599338067695498,-0.0975601002573967,0.00430865678936243,0.0395255386829376,0.0347717776894569,0.0355667844414711
689,-0.00634730514138937,-0.0992515310645103,0.00322155840694904,0.0407463870942593,0.0329921171069145,0.0352456159889698
690,-0.00443297438323498,-0.0991417616605759,0.00487024523317814,0.0431963801383972,0.0346316024661064,0.0370692051947117
691,-0.00352656189352274,-0.0986890122294426,0.0061664804816246,0.0438763462007046,0.0363063588738441,0.0382768884301186
692,-0.00513979326933622,-0.098438523709774,0.00587400374934077,0.0423408523201942,0.036570779979229,0.0378904789686203
693,-0.00717351771891117,-0.0970577374100685,0.00572052830830216,0.0408632010221481,0.0375447124242783,0.0375438965857029
694,-0.00729207368567586,-0.0934534147381783,0.00723610352724791,0.0412127375602722,0.0411378256976604,0.0388611480593681
695,-0.00643875170499086,-0.0890361592173576,0.00869299005717039,0.0418868623673916,0.0451785996556282,0.0398029983043671
696,-0.00684918370097876,-0.0857716947793961,0.00783359259366989,0.0409455299377441,0.0460450239479542,0.0376172997057438
697,-0.00831066258251667,-0.0837674587965012,0.0059663625434041,0.0391094088554382,0.0438842251896858,0.0331041999161243
698,-0.00981721002608538,-0.08211300522089,0.00464321719482541,0.0371309854090214,0.040826715528965,0.0285811256617308
699,-0.0109423259273171,-0.0798832699656487,0.00329973874613643,0.0352245531976223,0.0379349738359451,0.0256637185811996
700,-0.00991172529757023,-0.0763881802558899,0.00303588877432048,0.0349930040538311,0.0370770059525967,0.0252499654889107
701,-0.00620493199676275,-0.0723422169685364,0.00503957038745284,0.0367751978337765,0.0391181521117687,0.0261676497757435
702,-0.00304852589033544,-0.0696980580687523,0.0071056317538023,0.037879940122366,0.0414248108863831,0.0251851342618465
703,-0.00320052588358521,-0.0689114257693291,0.00719163566827774,0.036969892680645,0.0417538769543171,0.021387143060565
704,-0.00564942555502057,-0.0685757771134377,0.00602773483842611,0.0355099178850651,0.0405354686081409,0.0174652766436338
705,-0.00799414608627558,-0.0678560137748718,0.00493741454556584,0.0343804508447647,0.0383599326014519,0.0152330100536346
706,-0.00918503105640411,-0.066948264837265,0.00421673338860273,0.0329769477248192,0.0351100116968155,0.0134459193795919
707,-0.00934808701276779,-0.0655419677495956,0.00380886718630791,0.0308324750512838,0.0316276922821999,0.0105806468054652
708,-0.00905181653797627,-0.062702365219593,0.00385876721702516,0.028611347079277,0.0293417125940323,0.00731902802363038
709,-0.0091420691460371,-0.0584521591663361,0.0040940442122519,0.026948818936944,0.0282102432101965,0.00489669386297464
710,-0.0100851263850927,-0.0538278482854366,0.0040820324793458,0.0253295078873634,0.0275158379226923,0.003112708684057
711,-0.0105950813740492,-0.0492119714617729,0.00464578112587333,0.0239369533956051,0.0278838835656643,0.00157533376477659
712,-0.00873842556029558,-0.0441094264388084,0.00700112665072083,0.0238157194107771,0.0305463299155235,0.000274290767265484
713,-0.00514577236026526,-0.0385465621948242,0.00998921040445566,0.0243894793093205,0.034590408205986,-0.00120691815391183
714,-0.00146017165388912,-0.0332051105797291,0.0119012286886573,0.0249522533267736,0.0379530675709248,-0.0014914833009243
715,0.00192131276708096,-0.0286811012774706,0.0129920560866594,0.0260395389050245,0.0404772870242596,0.00159066007472575
716,0.00376268359832466,-0.0255794636905193,0.0130104199051857,0.0267792083323002,0.0413901954889297,0.00519358227029443
717,0.0027630846016109,-0.0241999160498381,0.01092897541821,0.0254074912518263,0.0387156680226326,0.00397965405136347
718,0.000925515778362751,-0.0235271323472261,0.00816144421696663,0.0230519026517868,0.0343016944825649,-0.00192445982247591
719,0.00114582304377109,-0.0222659651190043,0.00702101970091462,0.0219359435141087,0.032095342874527,-0.00843745283782482
720,0.00305617670528591,-0.0205062814056873,0.00711642438545823,0.0214107129722834,0.0320740789175034,-0.0137103274464607
721,0.00533881643787026,-0.0183857996016741,0.00733971176669002,0.0206628795713186,0.0321621708571911,-0.0176706183701754
722,0.00713543687015772,-0.0157005451619625,0.00726103782653809,0.0199536550790071,0.0310186147689819,-0.0204898901283741
723,0.00747304921969771,-0.0124637261033058,0.00687139993533492,0.0193625260144472,0.0280772056430578,-0.0224138852208853
724,0.00748119689524174,-0.00829262658953667,0.00746366614475846,0.0197924580425024,0.025228351354599,-0.0233480278402567
725,0.00917341373860836,-0.00322833633981645,0.0097510376945138,0.0209675915539265,0.0251748189330101,-0.0244165398180485
726,0.0116654885932803,0.00157755985856056,0.0117607805877924,0.0203027129173279,0.0268878154456615,-0.0273444689810276
727,0.0127328773960471,0.00530733913183212,0.0115342894569039,0.0168603919446468,0.0270555261522532,-0.0315426252782345
728,0.0121147185564041,0.00846512988209724,0.0100301755592227,0.01257349178195,0.0251927748322487,-0.0348534472286701
729,0.0105178970843554,0.011409648694098,0.00863616913557053,0.00862405635416508,0.0226464718580246,-0.0372274778783321
730,0.0086457896977663,0.0137042589485645,0.00723940599709749,0.00490557914599776,0.0201354157179594,-0.0404951758682728
731,0.00744622899219394,0.0152561031281948,0.00552186975255609,0.0014903707196936,0.0182303003966808,-0.0458678044378757
732,0.00716565828770399,0.0166769679635763,0.0037450126837939,-0.00204509031027555,0.0172688495367765,-0.0531022250652313
733,0.00773139297962189,0.0194126553833485,0.00258730608038604,-0.0053375237621367,0.0173644740134478,-0.0592181198298931
734,0.00885515846312046,0.0239854324609041,0.00183090136852115,-0.00715086236596107,0.0180983953177929,-0.0613857060670853
735,0.00975590292364359,0.0284227561205626,0.000672597845550627,-0.00766251096501946,0.0185618083924055,-0.0608347095549107
736,0.0110060637816787,0.0313014388084412,7.92387072579004E-05,-0.00688171247020364,0.0194349065423012,-0.059245590120554
737,0.01361392904073,0.0332164205610752,0.00126570113934577,-0.00433321110904217,0.0220280829817057,-0.0564557276666164
738,0.0165920071303844,0.0346091762185097,0.00320035195909441,-0.00111137272324413,0.0252961758524179,-0.0530780106782913
739,0.0177793856710196,0.0347490720450878,0.00373663729988039,0.000925348256714642,0.0265341941267252,-0.0509778186678886
740,0.0164065938442945,0.0330108292400837,0.00177367741707712,0.000926666893064976,0.0242603421211243,-0.0513465255498886
741,0.0132358344271779,0.029894171282649,-0.00246038008481264,-0.00119733600877225,0.0188945904374123,-0.0542825721204281
742,0.0100879613310099,0.0272708460688591,-0.00696374801918864,-0.00402130698785186,0.0131315840408206,-0.0581463016569614
743,0.00966532621532679,0.0271970108151436,-0.00842254515737295,-0.00444999523460865,0.0113815171644092,-0.0596290044486523
744,0.0118131786584854,0.0286410059779882,-0.00674719084054232,-0.00261326553300023,0.0140995364636183,-0.0586369857192039
745,0.0135987242683768,0.0290501359850168,-0.00489108357578516,-0.00190685142297298,0.0172348096966743,-0.0583569630980492
746,0.0136199155822396,0.0281007811427116,-0.00454740878194571,-0.00382891646586359,0.0186256393790245,-0.0603447332978249
747,0.0124240852892399,0.0266128238290548,-0.0057035805657506,-0.00734561821445823,0.0191952902823687,-0.0641642585396767
748,0.0111859664320946,0.025485634803772,-0.00689627323299646,-0.00994224660098553,0.019754434004426,-0.0677211135625839
749,0.0107770599424839,0.0254690237343311,-0.0064158383756876,-0.0092787267640233,0.0199228096753359,-0.0683009028434753
750,0.0108068576082587,0.0255595687776804,-0.00482003623619676,-0.00650675408542156,0.019066110253334,-0.0665049999952316
751,0.0104850241914392,0.0238692983984947,-0.00364325987175107,-0.00467612827196717,0.0177381467074156,-0.0653957948088646
752,0.0102599309757352,0.0204399097710848,-0.00301208114251494,-0.00422915257513523,0.0176238883286715,-0.0653584450483322
753,0.0106916967779398,0.0169314276427031,-0.00295338989235461,-0.00422837911173701,0.0185725167393684,-0.0646414235234261
754,0.0123232789337635,0.0150912385433912,-0.00267898617312312,-0.00349957100115716,0.0196500718593597,-0.0617692098021507
755,0.015566024929285,0.0153970364481211,-0.000574397563468665,-0.000872890115715563,0.021267818287015,-0.056435864418745
756,0.0182335581630468,0.0155119970440865,0.00143930362537503,0.00147362845018506,0.0221451446413994,-0.0516081936657429
757,0.0176718793809414,0.0127113768830895,-0.000452298030722886,0.000658791163004935,0.0201445743441582,-0.0512863099575043
758,0.0139845265075564,0.00702675804495811,-0.00674026645720005,-0.00285806483589113,0.015388198196888,-0.0568204708397388
759,0.0100203258916736,0.00108625774737448,-0.0134763224050403,-0.00646671699360013,0.010470368899405,-0.0651218593120575
760,0.00812015682458878,-0.00281449151225388,-0.0171103440225124,-0.00820993632078171,0.00780726131051779,-0.0707144141197205
761,0.00743926549330354,-0.00492887105792761,-0.0186697226017714,-0.00880765821784735,0.00633919378742576,-0.0719465911388397
762,0.00717645930126309,-0.0058052372187376,-0.0194934662431479,-0.00926362629979849,0.00464257830753922,-0.0706649422645569
763,0.00760377617552876,-0.00526582775637507,-0.0191257540136576,-0.00911380257457495,0.00336894788779318,-0.0681459605693817
764,0.00830231513828039,-0.00409634178504348,-0.0179107636213303,-0.00795565359294415,0.00310278381220996,-0.0652270317077637
765,0.0090805646032095,-0.00340833980590105,-0.01618985645473,-0.00573016377165914,0.00444771070033312,-0.062516950070858
766,0.00952598173171282,-0.00378210679627955,-0.0138515215367079,-0.00294444314204156,0.00749399233609438,-0.0604002475738525
767,0.00907153077423573,-0.00539417658001184,-0.0112763298675418,-0.000616875593550503,0.0115932049229741,-0.0594975799322128
768,0.00857015326619148,-0.00789712741971016,-0.00850092619657516,0.000829681463073939,0.0169097818434238,-0.0598679594695568
769,0.00872125383466482,-0.0111254202201962,-0.00559278205037117,0.00153301272075623,0.0226673949509859,-0.0610813125967979
770,0.00856881774961948,-0.0153505215421319,-0.00355851766653359,0.00131338962819427,0.0260923411697149,-0.0632535964250565
771,0.00808806531131268,-0.0200811699032784,-0.0020428067073226,0.000832553778309375,0.0268912855535746,-0.0659336298704147
772,0.00939800590276718,-0.0238655097782612,0.00153461401350796,0.00245518167503178,0.0286308117210865,-0.0670640617609024
773,0.012978183105588,-0.0263808518648148,0.00759310461580753,0.0065491097047925,0.0329835116863251,-0.0660860687494278
774,0.0162469036877155,-0.0289878770709038,0.012578540481627,0.00994851626455784,0.0375438816845417,-0.0654471293091774
775,0.0171669069677591,-0.0324780493974686,0.0139207700267434,0.0105527229607105,0.0398834608495235,-0.0666664615273476
776,0.0161362644284964,-0.0365353748202324,0.0128839854151011,0.00941900163888931,0.0398002937436104,-0.0687700361013412
777,0.0138983307406306,-0.041481476277113,0.0108774015679955,0.00702175032347441,0.0379641875624657,-0.0717623382806778
778,0.0113007072359324,-0.0471029616892338,0.00843353848904371,0.00333411968313158,0.0355848670005798,-0.0760257616639137
779,0.00981716625392437,-0.0513879209756851,0.00686189951375127,0.000221588968997821,0.0339628793299198,-0.0797223895788193
780,0.00941329542547464,-0.0534623451530933,0.00662339804694057,-0.00122594251297414,0.0332017987966537,-0.081166572868824
781,0.00873809400945902,-0.0543948411941528,0.00680080289021134,-0.00145194726064801,0.0331368334591389,-0.0805842578411102
782,0.00693861767649651,-0.0550849735736847,0.00606823014095426,-0.000524535193108022,0.033233180642128,-0.0791847929358482
783,0.00461176875978708,-0.0557461939752102,0.00412874994799495,0.00133502413518727,0.0325389467179775,-0.0781275629997253
784,0.00333180208690465,-0.0559537895023823,0.0024941423907876,0.00322760082781315,0.0315036997199059,-0.0770494043827057
785,0.00296394666656852,-0.0547486692667007,0.00213214801624417,0.0047693308442831,0.0318035036325455,-0.0739352256059647
786,0.00221101194620132,-0.051841251552105,0.00268168444745243,0.00641883304342628,0.034383587539196,-0.0682792291045189
787,0.00161822640802711,-0.0480490922927856,0.00351539859548211,0.00798281189054251,0.0379358045756817,-0.0623153373599052
788,0.00252273073419929,-0.0440649837255478,0.0040819407440722,0.00878354348242283,0.0404263325035572,-0.0579401552677155
789,0.00511340750381351,-0.0396914482116699,0.00457595428451896,0.0093091856688261,0.0416989512741566,-0.0552100725471973
790,0.0085705416277051,-0.03439661860466,0.00545314140617847,0.0103231268003583,0.0426075384020805,-0.0533275566995144
791,0.0116128511726856,-0.0282702744007111,0.00665271794423461,0.0115564586594701,0.0434687919914722,-0.0512682385742664
792,0.0130182886496186,-0.0219302624464035,0.00817139726132154,0.0126278083771467,0.0444756262004375,-0.0484548285603523
793,0.0115717360749841,-0.0163779482245445,0.00997096486389637,0.0131491543725133,0.0463265217840672,-0.0462891310453415
794,0.00715358322486281,-0.0127786034718156,0.0111016165465117,0.0123489014804363,0.0488403774797916,-0.046875961124897
795,0.00247993250377476,-0.0101872403174639,0.010490539483726,0.0104982424527407,0.0492920652031899,-0.0488914623856544
796,0.000226872172788717,-0.00667785620316863,0.00717020872980356,0.00730614271014929,0.0446126870810986,-0.0501880533993244
797,0.000216401575016789,-0.00223960331641138,0.000701969431247562,0.00136907072737813,0.0353265292942524,-0.0511599704623222
798,0.00106366572435945,0.00241183978505433,-0.00707976054400206,-0.00589385395869613,0.0246662981808186,-0.0514521710574627
799,0.000539817381650209,0.00619698548689485,-0.0139196198433638,-0.012030721642077,0.0140775442123413,-0.0509949699044228
800,-0.00271446583792567,0.00813929084688425,-0.018900703638792,-0.0162144061177969,0.00362710142508149,-0.05084627866745
801,-0.00705614732578397,0.00878954213112593,-0.0217920411378145,-0.0180331263691187,-0.00529003888368607,-0.0502445176243782
802,-0.0107344118878245,0.00910143926739693,-0.0234262775629759,-0.0180812086910009,-0.0114836217835546,-0.0485409758985043
803,-0.0136830247938633,0.00926052872091532,-0.0244028717279434,-0.0171645767986774,-0.0150527087971568,-0.0465758629143238
804,-0.0153483022004366,0.00945502799004316,-0.0227067675441504,-0.0145721919834614,-0.0156040797010064,-0.0441030897200108
805,-0.0158500801771879,0.00958422757685184,-0.0174557827413082,-0.010477639734745,-0.0136358859017491,-0.0401370152831078
806,-0.0169054921716452,0.00846213195472956,-0.0118924519047141,-0.00739478599280119,-0.011596443131566,-0.035459142178297
807,-0.018807802349329,0.00514482520520687,-0.00923755392432213,-0.00755224050953984,-0.0111657958477736,-0.0322476550936699
808,-0.0208514519035816,0.00012227710976731,-0.0104357684031129,-0.0113914711400867,-0.0130450762808323,-0.0318894386291504
809,-0.0222518630325794,-0.00495854346081614,-0.0143933044746518,-0.0177647396922112,-0.0170740112662315,-0.0339409001171589
810,-0.0228426046669483,-0.00889237225055695,-0.0197118911892176,-0.0249421540647745,-0.0229287259280682,-0.0372559688985348
811,-0.0237551275640726,-0.011568452231586,-0.0257884189486504,-0.0310200545936823,-0.030877748504281,-0.0408135950565338
812,-0.0247196350246668,-0.0128273973241448,-0.0308712124824524,-0.0338636562228203,-0.0389206632971764,-0.0436561331152916
813,-0.0245028175413609,-0.0127233890816569,-0.033642590045929,-0.0333951637148857,-0.0443353690207005,-0.045795138925314
814,-0.0236922856420279,-0.0124949272722006,-0.0350115597248077,-0.0326428860425949,-0.0473217368125916,-0.0489381961524487
815,-0.0230402145534754,-0.0131033016368747,-0.0352239049971104,-0.0337527059018612,-0.0488238371908665,-0.0540126636624336
816,-0.0228971596807241,-0.0143593531101942,-0.0347370691597462,-0.0363361462950706,-0.0504573807120323,-0.0596253462135792
817,-0.0238809827715158,-0.0159232560545206,-0.0360065139830112,-0.0400794111192226,-0.0546609349548817,-0.0646653026342392
818,-0.0248865894973278,-0.0171575713902712,-0.039678055793047,-0.0445901863276958,-0.0605810694396496,-0.0687387064099312
819,-0.0246509239077568,-0.0173644367605448,-0.0442105270922184,-0.0494775921106339,-0.0658193752169609,-0.0720839276909828
820,-0.0235759578645229,-0.016520943492651,-0.0484589114785194,-0.055100716650486,-0.0698746964335442,-0.0760410279035568
821,-0.022529311478138,-0.015108616091311,-0.0520179234445095,-0.0612127482891083,-0.0737882554531097,-0.08132004737854
822,-0.0225629527121782,-0.0138257946819067,-0.0558146014809608,-0.0674030110239983,-0.080014705657959,-0.0877983719110489
823,-0.023074259981513,-0.0125217447057366,-0.0605568587779999,-0.0732069164514542,-0.08876683562994,-0.0941936522722244
824,-0.0226129442453384,-0.0100464411079884,-0.0658101439476013,-0.0776797607541084,-0.0975207760930061,-0.0975039824843407
825,-0.021812729537487,-0.00626838486641645,-0.0714746490120888,-0.0810306072235107,-0.105516009032726,-0.0962111577391624
826,-0.0210694707930088,-0.00263452460058033,-0.0766553282737732,-0.083994098007679,-0.112738460302353,-0.0930075943470001
827,-0.0192860160022974,-0.000589324219617993,-0.0791857987642288,-0.0858520641922951,-0.118099987506866,-0.0916492193937302
828,-0.0166508182883263,-0.00043918369919993,-0.0784947425127029,-0.0859489738941193,-0.121434487402439,-0.0928065255284309
829,-0.014780193567276,-0.00134611176326871,-0.0765498355031013,-0.0852915719151497,-0.123539924621582,-0.094669446349144
830,-0.0145944785326719,-0.00265339645557106,-0.0757903531193733,-0.0854944661259651,-0.12482026219368,-0.0961906462907791
831,-0.0153305949643254,-0.00420241430401802,-0.0773307755589485,-0.0871261209249496,-0.125871852040291,-0.0975021198391914
832,-0.0152549566701055,-0.00527710979804397,-0.0805472806096077,-0.0894195437431335,-0.127811536192894,-0.0981583669781685
833,-0.0135370036587119,-0.00552160898223519,-0.0843931436538696,-0.0920157805085182,-0.13138347864151,-0.0986324101686478
834,-0.0102083003148437,-0.00526116136461496,-0.0879293829202652,-0.0946740806102753,-0.135797217488289,-0.100056804716587
835,-0.00691355066373944,-0.00513374665752053,-0.0923247784376144,-0.0976872146129608,-0.141757667064667,-0.102990187704563
836,-0.00629039807245135,-0.00583033030852675,-0.100133575499058,-0.10213465988636,-0.151496425271034,-0.107986226677895
837,-0.00827902741730213,-0.00730710569769144,-0.110057957470417,-0.107976958155632,-0.163061812520027,-0.114328272640705
838,-0.0110573712736368,-0.00907069910317659,-0.118709169328213,-0.114636570215225,-0.172311887145042,-0.119865015149117
839,-0.0140376267954707,-0.0108415363356471,-0.124970696866512,-0.121183954179287,-0.178200006484985,-0.122676663100719
840,-0.0175392683595419,-0.0127432597801089,-0.129206448793411,-0.125997245311737,-0.18248838186264,-0.122474178671837
841,-0.0207010675221682,-0.01429349090904,-0.131395816802979,-0.127275958657265,-0.18634507060051,-0.119704775512218
842,-0.0217617116868496,-0.0145150860771537,-0.13094325363636,-0.124251708388329,-0.188572019338608,-0.114679329097271
843,-0.0208341870456934,-0.0138848330825567,-0.128219231963158,-0.119060382246971,-0.188318118453026,-0.109193697571754
844,-0.0196630731225014,-0.0140539845451713,-0.124698787927628,-0.114746481180191,-0.186534896492958,-0.10568068921566
845,-0.0192671436816454,-0.0161225572228432,-0.121898137032986,-0.112479746341705,-0.184160053730011,-0.104869171977043
846,-0.0199130140244961,-0.0202891565859318,-0.121953740715981,-0.112869501113892,-0.182522237300873,-0.106543488800526
847,-0.0207515563815832,-0.025134339928627,-0.125696748495102,-0.115242078900337,-0.182528018951416,-0.109290301799774
848,-0.0203817617148161,-0.0286823604255915,-0.130964189767838,-0.117111466825008,-0.183160662651062,-0.110407702624798
849,-0.0186771340668201,-0.0306123942136765,-0.13474728167057,-0.116749100387096,-0.182710334658623,-0.108197897672653
850,-0.0161372572183609,-0.0318211205303669,-0.135034561157227,-0.114123120903969,-0.179551914334297,-0.103501737117767
851,-0.0136699387803674,-0.0336013399064541,-0.132282838225365,-0.110839113593102,-0.174048036336899,-0.099321112036705
852,-0.012233005836606,-0.0359314009547234,-0.128439009189606,-0.10774601995945,-0.168558791279793,-0.0964265540242195
853,-0.0114711029455066,-0.0370250195264816,-0.123681597411633,-0.103186912834644,-0.163398578763008,-0.0922430530190468
854,-0.0102692302316427,-0.0363586470484734,-0.117277778685093,-0.0965290665626526,-0.156257107853889,-0.0863330587744713
855,-0.00872232206165791,-0.0357107631862164,-0.110677763819695,-0.0903382375836372,-0.146612092852592,-0.0816304385662079
856,-0.00804593879729509,-0.0364112220704556,-0.10596564412117,-0.0868042483925819,-0.136731684207916,-0.0798425599932671
857,-0.00814703479409218,-0.0375750362873077,-0.102899983525276,-0.0849624797701836,-0.128012672066689,-0.0795171409845352
858,-0.00815811660140753,-0.0380462147295475,-0.100014925003052,-0.0829590559005737,-0.120219878852367,-0.0788363814353943
859,-0.00881743803620338,-0.0383803844451904,-0.0967257022857666,-0.0803456157445908,-0.112829387187958,-0.0775338038802147
860,-0.010976055637002,-0.0395625792443752,-0.0928684175014496,-0.077148012816906,-0.105042427778244,-0.0756896138191223
861,-0.0134718371555209,-0.0411303043365479,-0.0875891000032425,-0.072504036128521,-0.0965883731842041,-0.07223179936409
862,-0.0147210657596588,-0.0417207777500153,-0.0804359763860703,-0.0651989504694939,-0.0886546820402145,-0.0655901655554771
863,-0.0142656890675426,-0.0407044775784016,-0.0721207410097122,-0.0553054846823215,-0.0819728225469589,-0.0558147877454758
864,-0.0122269447892904,-0.0384351052343845,-0.06368388235569,-0.0443935059010983,-0.0755851045250893,-0.0450470075011253
865,-0.0101839220151305,-0.036088839173317,-0.057343777269125,-0.0354559905827045,-0.0699440017342567,-0.0372526273131371
866,-0.0104170618578792,-0.03511893004179,-0.0554421879351139,-0.0314261019229889,-0.0671597570180893,-0.0360313579440117
867,-0.012212447822094,-0.0355190671980381,-0.0563572719693184,-0.0315476469695568,-0.0661091655492783,-0.0402177311480045
868,-0.0132765239104629,-0.0364140309393406,-0.0561382323503494,-0.0329827554523945,-0.0634411871433258,-0.0450995750725269
869,-0.0127461878582835,-0.0371710993349552,-0.0529945492744446,-0.0335811451077461,-0.0578652285039425,-0.0464696623384953
870,-0.0108069190755486,-0.0371623672544956,-0.047312069684267,-0.0315736196935177,-0.049256756901741,-0.0428114086389542
871,-0.00868283119052649,-0.0366574563086033,-0.0403657741844654,-0.0269010551273823,-0.0386904142796993,-0.0362259559333324
872,-0.00766864698380232,-0.0363784022629261,-0.0333846025168896,-0.021020608022809,-0.0289683137089014,-0.0296479780226946
873,-0.00818692985922098,-0.0364923588931561,-0.0276223793625832,-0.0158482138067484,-0.022416228428483,-0.0251313019543886
874,-0.0098545178771019,-0.0367586426436901,-0.0243559423834085,-0.012902638874948,-0.0195040460675955,-0.0238365344703197
875,-0.0113089652732015,-0.0365171208977699,-0.0232104267925024,-0.0114337150007486,-0.0185781940817833,-0.0243630427867174
876,-0.0107668954879045,-0.0348773933947086,-0.0218962859362364,-0.00890285708010197,-0.0167859215289354,-0.0231717918068171
877,-0.00779447378590703,-0.0319660976529121,-0.0188524276018143,-0.0041214800439775,-0.0125498501583934,-0.0185478404164314
878,-0.00428542960435152,-0.029671311378479,-0.0151622779667377,0.00105747941415757,-0.00640703085809946,-0.0128967715427279
879,-0.00155941606499255,-0.0288270078599453,-0.0117754079401493,0.00506309606134892,0.00119076587725431,-0.00885442644357681
880,0.00106562313158065,-0.0277285445481539,-0.00749805616214871,0.00917587708681822,0.0103522296994925,-0.00560559751465917
881,0.00376817630603909,-0.0254333950579166,-0.00147892569657415,0.0145381717011333,0.020358769223094,-0.00154651654884219
882,0.00512566743418574,-0.0231852363795042,0.00472381617873907,0.0199278872460127,0.029051860794425,0.0025489570107311
883,0.00414483575150371,-0.0222102086991072,0.00862066261470318,0.0236366894096136,0.0339127853512764,0.00497761368751526
884,0.00259402743540704,-0.0221928898245096,0.0102476365864277,0.0259320568293333,0.0356101170182228,0.00593578489497304
885,0.00241475785151124,-0.0220137480646372,0.0114837130531669,0.0282328724861145,0.0370470099151134,0.00722155347466469
886,0.00232347100973129,-0.0213577561080456,0.012533625587821,0.030696164816618,0.0387568734586239,0.00937665067613125
887,0.00110916595440358,-0.0203786361962557,0.0132788233458996,0.0333104766905308,0.040734089910984,0.0114085469394922
888,0.000385587045457214,-0.0186209212988615,0.0151255819946527,0.0369875654578209,0.0449372716248035,0.0125757614150643
889,0.00162893941160291,-0.0159869324415922,0.0186952371150255,0.0418674871325493,0.0518530644476414,0.0128456670790911
890,0.0040243580006063,-0.0139494631439447,0.0227307192981243,0.046439241617918,0.0594838075339794,0.012438009493053
891,0.00612404057756066,-0.0139237707480788,0.0257515590637922,0.0486457720398903,0.0664778724312782,0.0116889281198382
892,0.00827672053128481,-0.0147302225232124,0.0276030860841274,0.0494262799620628,0.072547622025013,0.0117019666358829
893,0.011604874394834,-0.0147801889106631,0.0291848555207253,0.0527700856328011,0.076789990067482,0.012916742824018
894,0.0148853370919824,-0.0152952456846833,0.0301907304674387,0.0586574450135231,0.0775035619735718,0.01345344632864
895,0.0162903275340796,-0.0174575671553612,0.0298428442329168,0.0627369955182076,0.0746303200721741,0.0122592635452747
896,0.0165549609810114,-0.0199526082724333,0.0296583399176598,0.0638735741376877,0.071292020380497,0.0111690843477845
897,0.0169068705290556,-0.0216189883649349,0.0314987413585186,0.0638344436883926,0.0708372890949249,0.0116569688543677
898,0.0168290361762047,-0.0227976236492395,0.0353231318295002,0.0633812546730042,0.0739725604653358,0.0132153257727623
899,0.0155825819820166,-0.0239686779677868,0.0403997860848904,0.0630088374018669,0.0792371109127998,0.0149619914591312
900,0.0143677620217204,-0.0249808039516211,0.0461965538561344,0.0631098821759224,0.0851361155509949,0.0167430955916643
901,0.0148566626012325,-0.025428282096982,0.0518213175237179,0.0635563060641289,0.0908567979931831,0.0189748108386993
902,0.0169064626097679,-0.0249069724231958,0.0562385283410549,0.0646625906229019,0.0957869961857796,0.0220941081643105
903,0.0193541198968887,-0.0231948290020227,0.0592916011810303,0.0670720264315605,0.0998796597123146,0.0260832160711288
904,0.0207801423966885,-0.0210329927504063,0.0612485259771347,0.0703179091215134,0.102646969258785,0.0297887325286865
905,0.0204220097512007,-0.0195805132389069,0.0620791092514992,0.0729275718331337,0.102962851524353,0.0317086614668369
906,0.0196961704641581,-0.0187614485621452,0.0628802925348282,0.0749904736876488,0.102343857288361,0.0323079116642475
907,0.019963001832366,-0.0178862288594246,0.0651469007134438,0.0777957886457443,0.104291811585426,0.0331459119915962
908,0.0207350999116898,-0.0165309868752956,0.0683808773756027,0.0817655920982361,0.109100550413132,0.0351737625896931
909,0.0218540709465742,-0.0137203745543957,0.0718266293406487,0.0872676894068718,0.113854423165321,0.0393728315830231
910,0.0230167396366596,-0.00939075648784637,0.0749619752168655,0.0932945236563683,0.116176195442677,0.0447932295501232
911,0.0229999497532845,-0.00547780795022845,0.0767416656017303,0.0971056818962097,0.116479262709618,0.048199363052845
912,0.0219831895083189,-0.0031470691319555,0.077398881316185,0.0979944095015526,0.117325603961945,0.0484276972711086
913,0.0207219682633877,-0.00195839232765138,0.0771877393126488,0.0968881919980049,0.118962287902832,0.0466865822672844
914,0.0187685154378414,-0.00145709107164294,0.0752767994999886,0.0942500382661819,0.118940576910973,0.0440535061061382
915,0.0159695334732533,-0.00143630022648722,0.071919210255146,0.090798132121563,0.11627784371376,0.0413589887320995
916,0.0129038747400045,-0.00183312362059951,0.0680532306432724,0.087040551006794,0.112162314355373,0.0389034412801266
917,0.0103504536673427,-0.00232744216918945,0.0644344985485077,0.0832218900322914,0.108523018658161,0.036509994417429
918,0.00903007853776217,-0.00216564838774502,0.0621897242963314,0.0803164541721344,0.106463991105556,0.0340323634445667
919,0.00898444186896086,-0.000703110010363162,0.0622231923043728,0.0797755196690559,0.106132261455059,0.0319102816283703
920,0.00936535187065601,0.00183910992927849,0.0638453289866447,0.0817873179912567,0.107061348855495,0.0306193809956312
921,0.00873706676065922,0.00393547490239143,0.0648689866065979,0.0835408121347427,0.107549406588078,0.0286813285201788
922,0.0071826153434813,0.00503833685070276,0.0648179724812508,0.0831250473856926,0.107279278337955,0.0257987882941961
923,0.00668394006788731,0.00643259519711137,0.0654086098074913,0.0827807486057281,0.108048893511295,0.024976309388876
924,0.00812468864023685,0.00852837320417166,0.0673917233943939,0.0844008177518845,0.110253863036633,0.0274151843041182
925,0.0105615584179759,0.0107367550954223,0.0700229480862617,0.0867889449000359,0.112870298326015,0.0311806555837393
926,0.0125238690525293,0.0127006424590945,0.0716011449694633,0.0872873887419701,0.114541202783585,0.0338698029518127
927,0.013882246799767,0.0148819610476494,0.0714824870228767,0.0852816924452782,0.114768713712692,0.0350328795611858
928,0.0152007751166821,0.0177585650235415,0.0706620067358017,0.0826808214187622,0.114240817725658,0.0360484309494495
929,0.0154390409588814,0.020404115319252,0.0689752697944641,0.0802174732089043,0.112530447542667,0.0368327610194683
930,0.0145968208089471,0.0223539732396603,0.0666337609291077,0.0784922018647194,0.109995059669018,0.0370209477841854
931,0.0139181101694703,0.0237542446702719,0.0647429972887039,0.0780364274978638,0.108498394489288,0.0366697460412979
932,0.0133174136281013,0.0242151357233524,0.063207633793354,0.0775478333234787,0.108735933899879,0.0349646806716919
933,0.013404680415988,0.0243912823498249,0.0624372027814388,0.0767871290445328,0.110797926783562,0.032661247998476
934,0.0152129596099257,0.0253051407635212,0.0632737725973129,0.0768034085631371,0.113910503685474,0.0315151549875736
935,0.0170726254582405,0.0263430383056402,0.0644717141985893,0.0770125538110733,0.115549921989441,0.0310379676520824
936,0.0173848029226065,0.0268963184207678,0.0647349581122398,0.0766520276665688,0.114938169717789,0.0303149819374084
937,0.0167138911783695,0.0272980146110058,0.0644702985882759,0.0758605226874352,0.113610610365868,0.0293963011354208
938,0.0153302066028118,0.0274152345955372,0.0637840703129768,0.0739844441413879,0.111908778548241,0.0276806782931089
939,0.0142588261514902,0.0276662725955248,0.0633517280220985,0.0717574954032898,0.110338091850281,0.0259194057434797
940,0.0141125069931149,0.0285651069134474,0.0637481808662415,0.070446252822876,0.109318464994431,0.0252886936068535
941,0.0138905495405197,0.029770540073514,0.0644716024398804,0.0691897347569466,0.108344793319702,0.0247650649398565
942,0.0135790528729558,0.0318193100392818,0.0659128352999687,0.0679106861352921,0.108185060322285,0.0242152325809002
943,0.0127741368487477,0.0347949042916298,0.0673251152038574,0.0667390078306198,0.108277268707752,0.0239386688917875
944,0.0107740331441164,0.0369829833507538,0.0669393166899681,0.0642946138978004,0.106671988964081,0.0222554672509432
945,0.00942930951714516,0.0382805950939655,0.0662269741296768,0.0617695972323418,0.104785576462746,0.0197015684098005
946,0.0106676183640957,0.0401710756123066,0.0674831122159958,0.0615243390202522,0.104783147573471,0.0187677256762981
947,0.0135245136916637,0.0422521829605103,0.0695594847202301,0.0620564222335815,0.105129465460777,0.0183630734682083
948,0.0167248882353306,0.0438071005046368,0.0706861987709999,0.0617680922150612,0.104124076664448,0.0166685413569212
949,0.0200788453221321,0.0452862828969955,0.0708473101258278,0.061774980276823,0.102074146270752,0.0147651638835669
950,0.0230741091072559,0.0468811169266701,0.0705893263220787,0.0626586377620697,0.0998676270246506,0.0139576708897948
951,0.0244819466024637,0.048291452229023,0.0697674378752708,0.0630925893783569,0.0978693068027496,0.0136734629049897
952,0.024573527276516,0.0497163273394108,0.0688315257430077,0.0622036531567574,0.0965958535671234,0.0131212482228875
953,0.0248999260365963,0.0515607111155987,0.0689610093832016,0.0605386681854725,0.0973636656999588,0.0123271616175771
954,0.0247858222573996,0.0534870103001595,0.0688735842704773,0.0580599419772625,0.0989787355065346,0.011044142767787
955,0.0227133259177208,0.055271428078413,0.0662611424922943,0.0542469844222069,0.0977526679635048,0.00922507233917713
956,0.0194000415503979,0.0573856383562088,0.0618693791329861,0.0500350706279278,0.0928018987178802,0.00770945940166712
957,0.0166255906224251,0.0602509640157223,0.0582751929759979,0.0469639450311661,0.0872389003634453,0.00707035604864359
958,0.0146817117929459,0.0634731352329254,0.056147176772356,0.0447095111012459,0.0830532237887383,0.00664441380649805
959,0.014203043654561,0.0669753700494766,0.0558535754680634,0.0431902371346951,0.0810529813170433,0.00664512347429991
960,0.015604299493134,0.0711600929498672,0.0573760084807873,0.0431443154811859,0.0813559293746948,0.0075611206702888
961,0.0163087118417025,0.0750687643885612,0.0581753998994827,0.0430336110293865,0.080940879881382,0.00744976429268718
962,0.0150855388492346,0.0779382959008217,0.0572484135627747,0.0413521900773048,0.0784444808959961,0.00526873813942075
963,0.0141106657683849,0.0810538828372955,0.0566145218908787,0.039555624127388,0.0762986466288567,0.00342919677495956
964,0.0145450253039598,0.0853171721100807,0.057397224009037,0.0388995297253132,0.0758202448487282,0.00351037480868399
965,0.0153657095506787,0.0900551006197929,0.0585642084479332,0.0384397655725479,0.0761125236749649,0.00386814516969025
966,0.0150673827156425,0.0945736691355705,0.0582616105675697,0.0364502035081387,0.0755137801170349,0.00200057029724121
967,0.0124757150188088,0.0987765118479729,0.0552277117967606,0.0317189730703831,0.0726845860481262,-0.00301403063349426
968,0.00890995189547539,0.103658638894558,0.0512402057647705,0.0260831415653229,0.0687675923109055,-0.00875899009406567
969,0.00728672323748469,0.11055251210928,0.0494468919932842,0.0228965859860182,0.0659372806549072,-0.0118970349431038
970,0.00811068341135979,0.118898659944534,0.0497317276895046,0.0217646919190884,0.0643649697303772,-0.0132124340161681
971,0.010194206610322,0.126454174518585,0.0503695979714394,0.0205533485859632,0.0635651797056198,-0.015576085075736
972,0.0128720225766301,0.130736410617828,0.0511830933392048,0.0203001815825701,0.0637161210179329,-0.0183341056108475
973,0.0151057811453938,0.129544213414192,0.0522276423871517,0.0228581055998802,0.0644247755408287,-0.0189699027687311
974,0.0152013385668397,0.121768519282341,0.0522464439272881,0.0262606050819159,0.0644701719284058,-0.0182936154305935
975,0.0130618754774332,0.108662098646164,0.0502249114215374,0.0272262524813414,0.0632703751325607,-0.0188801139593124
976,0.0101130483672023,0.0935001149773598,0.046773225069046,0.0257860645651817,0.0612145811319351,-0.020741418004036
977,0.00815759599208832,0.0800091922283173,0.0440691821277142,0.0249435696750879,0.0599342361092567,-0.0211897753179073
978,0.00869554746896029,0.0706291943788528,0.0439496673643589,0.0272118244320154,0.0609661713242531,-0.017683170735836
979,0.0106735117733479,0.0648491829633713,0.0449713245034218,0.0315156318247318,0.0628253817558289,-0.0113246962428093
980,0.0118852881714702,0.0605193004012108,0.0445770286023617,0.0347739234566689,0.0634520500898361,-0.00571689568459988
981,0.0113823106512427,0.0563732385635376,0.0419377721846104,0.0350432656705379,0.0624679327011108,-0.00348701444454491
982,0.00998575892299414,0.0529281236231327,0.0385475568473339,0.0336276069283485,0.0606915540993214,-0.00420374656096101
983,0.00913930777460337,0.0508745014667511,0.0367393456399441,0.033056303858757,0.0593118146061897,-0.00537018617615104
984,0.00864180829375982,0.049099288880825,0.036547489464283,0.0332043059170246,0.0582206249237061,-0.00620246445760131
985,0.00780407199636102,0.0461280420422554,0.0365412198007107,0.033224668353796,0.0570572540163994,-0.00733783468604088
